TIME,CH1,SBP,DBP,Model,TBS1102C
-3.20000 ,0.48000 ,117,73,Firmware Version,v2015-08-04-prequal4ch70_v1.3
-3.19700 ,0.44000 ,,,,
-3.19400 ,0.36000 ,,,Point Format,Y
-3.19000 ,0.32000 ,,,Horizontal Units,S
-3.18700 ,0.28000 ,,,Horizontal Scale,0.4
-3.18400 ,0.24000 ,,,Sample Interval,0.0032
-3.18100 ,0.16000 ,,,Filter Frequency,2.00E+08
-3.17800 ,0.12000 ,,,Record Length,2000
-3.17400 ,0.08000 ,,,Gating,0.0% to 100.0%
-3.17100 ,0.04000 ,,,Probe Attenuation,10
-3.16800 ,0.00000 ,,,Vertical Units,V
-3.16500 ,0.00000 ,,,Vertical Offset,0
-3.16200 ,-0.08000 ,,,Vertical Scale,1
-3.15800 ,-0.08000 ,,,Label,
-3.15500 ,-0.12000 ,,,,
-3.15200 ,-0.16000 ,,,,
-3.14900 ,-0.16000 ,,,,
-3.14600 ,-0.20000 ,,,,
-3.14200 ,-0.24000 ,,,,
-3.13900 ,-0.28000 ,,,,
-3.13600 ,-0.28000 ,,,,
-3.13300 ,-0.28000 ,,,,
-3.13000 ,-0.32000 ,,,,
-3.12600 ,-0.32000 ,,,,
-3.12300 ,-0.32000 ,,,,
-3.12000 ,-0.36000 ,,,,
-3.11700 ,-0.44000 ,,,,
-3.11400 ,-0.40000 ,,,,
-3.11000 ,-0.44000 ,,,,
-3.10700 ,-0.44000 ,,,,
-3.10400 ,-0.48000 ,,,,
-3.10100 ,-0.48000 ,,,,
-3.09800 ,-0.52000 ,,,,
-3.09400 ,-0.56000 ,,,,
-3.09100 ,-0.52000 ,,,,
-3.08800 ,-0.56000 ,,,,
-3.08500 ,-0.56000 ,,,,
-3.08200 ,-0.60000 ,,,,
-3.07800 ,-0.60000 ,,,,
-3.07500 ,-0.64000 ,,,,
-3.07200 ,-0.68000 ,,,,
-3.06900 ,-0.68000 ,,,,
-3.06600 ,-0.72000 ,,,,
-3.06200 ,-0.68000 ,,,,
-3.05900 ,-0.72000 ,,,,
-3.05600 ,-0.72000 ,,,,
-3.05300 ,-0.72000 ,,,,
-3.05000 ,-0.76000 ,,,,
-3.04600 ,-0.76000 ,,,,
-3.04300 ,-0.76000 ,,,,
-3.04000 ,-0.80000 ,,,,
-3.03700 ,-0.80000 ,,,,
-3.03400 ,-0.84000 ,,,,
-3.03000 ,-0.80000 ,,,,
-3.02700 ,-0.84000 ,,,,
-3.02400 ,-0.84000 ,,,,
-3.02100 ,-0.88000 ,,,,
-3.01800 ,-0.88000 ,,,,
-3.01400 ,-0.84000 ,,,,
-3.01100 ,-0.84000 ,,,,
-3.00800 ,-0.84000 ,,,,
-3.00500 ,-0.88000 ,,,,
-3.00200 ,-0.88000 ,,,,
-2.99800 ,-0.88000 ,,,,
-2.99500 ,-0.88000 ,,,,
-2.99200 ,-0.88000 ,,,,
-2.98900 ,-0.88000 ,,,,
-2.98600 ,-0.88000 ,,,,
-2.98200 ,-0.92000 ,,,,
-2.97900 ,-0.96000 ,,,,
-2.97600 ,-0.92000 ,,,,
-2.97300 ,-0.96000 ,,,,
-2.97000 ,-0.96000 ,,,,
-2.96600 ,-0.96000 ,,,,
-2.96300 ,-1.00000 ,,,,
-2.96000 ,-1.00000 ,,,,
-2.95700 ,-1.00000 ,,,,
-2.95400 ,-1.00000 ,,,,
-2.95000 ,-1.04000 ,,,,
-2.94700 ,-1.04000 ,,,,
-2.94400 ,-1.08000 ,,,,
-2.94100 ,-1.08000 ,,,,
-2.93800 ,-1.08000 ,,,,
-2.93400 ,-1.12000 ,,,,
-2.93100 ,-1.08000 ,,,,
-2.92800 ,-1.12000 ,,,,
-2.92500 ,-1.12000 ,,,,
-2.92200 ,-1.12000 ,,,,
-2.91800 ,-1.16000 ,,,,
-2.91500 ,-1.16000 ,,,,
-2.91200 ,-1.12000 ,,,,
-2.90900 ,-1.16000 ,,,,
-2.90600 ,-1.16000 ,,,,
-2.90200 ,-1.20000 ,,,,
-2.89900 ,-1.16000 ,,,,
-2.89600 ,-1.16000 ,,,,
-2.89300 ,-1.16000 ,,,,
-2.89000 ,-1.20000 ,,,,
-2.88600 ,-1.20000 ,,,,
-2.88300 ,-1.20000 ,,,,
-2.88000 ,-1.20000 ,,,,
-2.87700 ,-1.20000 ,,,,
-2.87400 ,-1.20000 ,,,,
-2.87000 ,-1.24000 ,,,,
-2.86700 ,-1.24000 ,,,,
-2.86400 ,-1.24000 ,,,,
-2.86100 ,-1.28000 ,,,,
-2.85800 ,-1.24000 ,,,,
-2.85400 ,-1.28000 ,,,,
-2.85100 ,-1.28000 ,,,,
-2.84800 ,-1.32000 ,,,,
-2.84500 ,-1.32000 ,,,,
-2.84200 ,-1.36000 ,,,,
-2.83800 ,-1.36000 ,,,,
-2.83500 ,-1.40000 ,,,,
-2.83200 ,-1.36000 ,,,,
-2.82900 ,-1.40000 ,,,,
-2.82600 ,-1.36000 ,,,,
-2.82200 ,-1.40000 ,,,,
-2.81900 ,-1.40000 ,,,,
-2.81600 ,-1.40000 ,,,,
-2.81300 ,-1.44000 ,,,,
-2.81000 ,-1.44000 ,,,,
-2.80600 ,-1.48000 ,,,,
-2.80300 ,-1.48000 ,,,,
-2.80000 ,-1.44000 ,,,,
-2.79700 ,-1.44000 ,,,,
-2.79400 ,-1.48000 ,,,,
-2.79000 ,-1.48000 ,,,,
-2.78700 ,-1.52000 ,,,,
-2.78400 ,-1.52000 ,,,,
-2.78100 ,-1.52000 ,,,,
-2.77800 ,-1.52000 ,,,,
-2.77400 ,-1.60000 ,,,,
-2.77100 ,-1.56000 ,,,,
-2.76800 ,-1.60000 ,,,,
-2.76500 ,-1.60000 ,,,,
-2.76200 ,-1.64000 ,,,,
-2.75800 ,-1.64000 ,,,,
-2.75500 ,-1.68000 ,,,,
-2.75200 ,-1.72000 ,,,,
-2.74900 ,-1.72000 ,,,,
-2.74600 ,-1.76000 ,,,,
-2.74200 ,-1.76000 ,,,,
-2.73900 ,-1.80000 ,,,,
-2.73600 ,-1.84000 ,,,,
-2.73300 ,-1.84000 ,,,,
-2.73000 ,-1.84000 ,,,,
-2.72600 ,-1.88000 ,,,,
-2.72300 ,-1.92000 ,,,,
-2.72000 ,-1.92000 ,,,,
-2.71700 ,-1.92000 ,,,,
-2.71400 ,-1.96000 ,,,,
-2.71000 ,-1.92000 ,,,,
-2.70700 ,-1.92000 ,,,,
-2.70400 ,-1.92000 ,,,,
-2.70100 ,-1.92000 ,,,,
-2.69800 ,-1.92000 ,,,,
-2.69400 ,-1.84000 ,,,,
-2.69100 ,-1.80000 ,,,,
-2.68800 ,-1.72000 ,,,,
-2.68500 ,-1.64000 ,,,,
-2.68200 ,-1.56000 ,,,,
-2.67800 ,-1.40000 ,,,,
-2.67500 ,-1.28000 ,,,,
-2.67200 ,-1.08000 ,,,,
-2.66900 ,-0.92000 ,,,,
-2.66600 ,-0.72000 ,,,,
-2.66200 ,-0.52000 ,,,,
-2.65900 ,-0.28000 ,,,,
-2.65600 ,-0.04000 ,,,,
-2.65300 ,0.20000 ,,,,
-2.65000 ,0.44000 ,,,,
-2.64600 ,0.72000 ,,,,
-2.64300 ,0.96000 ,,,,
-2.64000 ,1.20000 ,,,,
-2.63700 ,1.48000 ,,,,
-2.63400 ,1.68000 ,,,,
-2.63000 ,1.92000 ,,,,
-2.62700 ,2.12000 ,,,,
-2.62400 ,2.32000 ,,,,
-2.62100 ,2.56000 ,,,,
-2.61800 ,2.68000 ,,,,
-2.61400 ,2.88000 ,,,,
-2.61100 ,3.00000 ,,,,
-2.60800 ,3.08000 ,,,,
-2.60500 ,3.20000 ,,,,
-2.60200 ,3.28000 ,,,,
-2.59800 ,3.36000 ,,,,
-2.59500 ,3.40000 ,,,,
-2.59200 ,3.44000 ,,,,
-2.58900 ,3.52000 ,,,,
-2.58600 ,3.48000 ,,,,
-2.58200 ,3.48000 ,,,,
-2.57900 ,3.48000 ,,,,
-2.57600 ,3.48000 ,,,,
-2.57300 ,3.40000 ,,,,
-2.57000 ,3.36000 ,,,,
-2.56600 ,3.32000 ,,,,
-2.56300 ,3.24000 ,,,,
-2.56000 ,3.16000 ,,,,
-2.55700 ,3.08000 ,,,,
-2.55400 ,3.00000 ,,,,
-2.55000 ,2.96000 ,,,,
-2.54700 ,2.88000 ,,,,
-2.54400 ,2.80000 ,,,,
-2.54100 ,2.72000 ,,,,
-2.53800 ,2.64000 ,,,,
-2.53400 ,2.56000 ,,,,
-2.53100 ,2.44000 ,,,,
-2.52800 ,2.36000 ,,,,
-2.52500 ,2.28000 ,,,,
-2.52200 ,2.20000 ,,,,
-2.51800 ,2.16000 ,,,,
-2.51500 ,2.08000 ,,,,
-2.51200 ,2.00000 ,,,,
-2.50900 ,1.96000 ,,,,
-2.50600 ,1.88000 ,,,,
-2.50200 ,1.80000 ,,,,
-2.49900 ,1.76000 ,,,,
-2.49600 ,1.72000 ,,,,
-2.49300 ,1.64000 ,,,,
-2.49000 ,1.60000 ,,,,
-2.48600 ,1.56000 ,,,,
-2.48300 ,1.56000 ,,,,
-2.48000 ,1.52000 ,,,,
-2.47700 ,1.44000 ,,,,
-2.47400 ,1.44000 ,,,,
-2.47000 ,1.40000 ,,,,
-2.46700 ,1.36000 ,,,,
-2.46400 ,1.32000 ,,,,
-2.46100 ,1.32000 ,,,,
-2.45800 ,1.28000 ,,,,
-2.45400 ,1.24000 ,,,,
-2.45100 ,1.20000 ,,,,
-2.44800 ,1.16000 ,,,,
-2.44500 ,1.16000 ,,,,
-2.44200 ,1.12000 ,,,,
-2.43800 ,1.08000 ,,,,
-2.43500 ,1.04000 ,,,,
-2.43200 ,1.00000 ,,,,
-2.42900 ,1.00000 ,,,,
-2.42600 ,0.92000 ,,,,
-2.42200 ,0.92000 ,,,,
-2.41900 ,0.88000 ,,,,
-2.41600 ,0.84000 ,,,,
-2.41300 ,0.80000 ,,,,
-2.41000 ,0.76000 ,,,,
-2.40600 ,0.72000 ,,,,
-2.40300 ,0.68000 ,,,,
-2.40000 ,0.68000 ,,,,
-2.39700 ,0.64000 ,,,,
-2.39400 ,0.60000 ,,,,
-2.39000 ,0.56000 ,,,,
-2.38700 ,0.56000 ,,,,
-2.38400 ,0.56000 ,,,,
-2.38100 ,0.56000 ,,,,
-2.37800 ,0.56000 ,,,,
-2.37400 ,0.56000 ,,,,
-2.37100 ,0.56000 ,,,,
-2.36800 ,0.60000 ,,,,
-2.36500 ,0.60000 ,,,,
-2.36200 ,0.64000 ,,,,
-2.35800 ,0.64000 ,,,,
-2.35500 ,0.64000 ,,,,
-2.35200 ,0.68000 ,,,,
-2.34900 ,0.68000 ,,,,
-2.34600 ,0.72000 ,,,,
-2.34200 ,0.72000 ,,,,
-2.33900 ,0.76000 ,,,,
-2.33600 ,0.76000 ,,,,
-2.33300 ,0.76000 ,,,,
-2.33000 ,0.80000 ,,,,
-2.32600 ,0.80000 ,,,,
-2.32300 ,0.80000 ,,,,
-2.32000 ,0.80000 ,,,,
-2.31700 ,0.80000 ,,,,
-2.31400 ,0.80000 ,,,,
-2.31000 ,0.80000 ,,,,
-2.30700 ,0.80000 ,,,,
-2.30400 ,0.80000 ,,,,
-2.30100 ,0.80000 ,,,,
-2.29800 ,0.80000 ,,,,
-2.29400 ,0.76000 ,,,,
-2.29100 ,0.76000 ,,,,
-2.28800 ,0.76000 ,,,,
-2.28500 ,0.76000 ,,,,
-2.28200 ,0.72000 ,,,,
-2.27800 ,0.68000 ,,,,
-2.27500 ,0.68000 ,,,,
-2.27200 ,0.68000 ,,,,
-2.26900 ,0.64000 ,,,,
-2.26600 ,0.64000 ,,,,
-2.26200 ,0.56000 ,,,,
-2.25900 ,0.56000 ,,,,
-2.25600 ,0.52000 ,,,,
-2.25300 ,0.48000 ,,,,
-2.25000 ,0.48000 ,,,,
-2.24600 ,0.40000 ,,,,
-2.24300 ,0.36000 ,,,,
-2.24000 ,0.32000 ,,,,
-2.23700 ,0.28000 ,,,,
-2.23400 ,0.24000 ,,,,
-2.23000 ,0.20000 ,,,,
-2.22700 ,0.12000 ,,,,
-2.22400 ,0.12000 ,,,,
-2.22100 ,0.04000 ,,,,
-2.21800 ,0.00000 ,,,,
-2.21400 ,0.00000 ,,,,
-2.21100 ,-0.04000 ,,,,
-2.20800 ,-0.08000 ,,,,
-2.20500 ,-0.12000 ,,,,
-2.20200 ,-0.16000 ,,,,
-2.19800 ,-0.16000 ,,,,
-2.19500 ,-0.24000 ,,,,
-2.19200 ,-0.24000 ,,,,
-2.18900 ,-0.28000 ,,,,
-2.18600 ,-0.32000 ,,,,
-2.18200 ,-0.32000 ,,,,
-2.17900 ,-0.36000 ,,,,
-2.17600 ,-0.40000 ,,,,
-2.17300 ,-0.40000 ,,,,
-2.17000 ,-0.44000 ,,,,
-2.16600 ,-0.44000 ,,,,
-2.16300 ,-0.48000 ,,,,
-2.16000 ,-0.52000 ,,,,
-2.15700 ,-0.52000 ,,,,
-2.15400 ,-0.56000 ,,,,
-2.15000 ,-0.56000 ,,,,
-2.14700 ,-0.60000 ,,,,
-2.14400 ,-0.60000 ,,,,
-2.14100 ,-0.64000 ,,,,
-2.13800 ,-0.64000 ,,,,
-2.13400 ,-0.64000 ,,,,
-2.13100 ,-0.68000 ,,,,
-2.12800 ,-0.72000 ,,,,
-2.12500 ,-0.72000 ,,,,
-2.12200 ,-0.72000 ,,,,
-2.11800 ,-0.72000 ,,,,
-2.11500 ,-0.76000 ,,,,
-2.11200 ,-0.76000 ,,,,
-2.10900 ,-0.80000 ,,,,
-2.10600 ,-0.76000 ,,,,
-2.10200 ,-0.80000 ,,,,
-2.09900 ,-0.84000 ,,,,
-2.09600 ,-0.80000 ,,,,
-2.09300 ,-0.84000 ,,,,
-2.09000 ,-0.88000 ,,,,
-2.08600 ,-0.84000 ,,,,
-2.08300 ,-0.84000 ,,,,
-2.08000 ,-0.88000 ,,,,
-2.07700 ,-0.92000 ,,,,
-2.07400 ,-0.92000 ,,,,
-2.07000 ,-0.92000 ,,,,
-2.06700 ,-0.96000 ,,,,
-2.06400 ,-1.00000 ,,,,
-2.06100 ,-0.96000 ,,,,
-2.05800 ,-1.00000 ,,,,
-2.05400 ,-1.00000 ,,,,
-2.05100 ,-1.00000 ,,,,
-2.04800 ,-1.00000 ,,,,
-2.04500 ,-1.00000 ,,,,
-2.04200 ,-1.04000 ,,,,
-2.03800 ,-1.04000 ,,,,
-2.03500 ,-1.08000 ,,,,
-2.03200 ,-1.04000 ,,,,
-2.02900 ,-1.04000 ,,,,
-2.02600 ,-1.08000 ,,,,
-2.02200 ,-1.08000 ,,,,
-2.01900 ,-1.08000 ,,,,
-2.01600 ,-1.04000 ,,,,
-2.01300 ,-1.08000 ,,,,
-2.01000 ,-1.08000 ,,,,
-2.00600 ,-1.12000 ,,,,
-2.00300 ,-1.08000 ,,,,
-2.00000 ,-1.08000 ,,,,
-1.99700 ,-1.12000 ,,,,
-1.99400 ,-1.12000 ,,,,
-1.99000 ,-1.12000 ,,,,
-1.98700 ,-1.12000 ,,,,
-1.98400 ,-1.16000 ,,,,
-1.98100 ,-1.16000 ,,,,
-1.97800 ,-1.16000 ,,,,
-1.97400 ,-1.16000 ,,,,
-1.97100 ,-1.20000 ,,,,
-1.96800 ,-1.20000 ,,,,
-1.96500 ,-1.24000 ,,,,
-1.96200 ,-1.20000 ,,,,
-1.95800 ,-1.24000 ,,,,
-1.95500 ,-1.28000 ,,,,
-1.95200 ,-1.24000 ,,,,
-1.94900 ,-1.28000 ,,,,
-1.94600 ,-1.28000 ,,,,
-1.94200 ,-1.28000 ,,,,
-1.93900 ,-1.28000 ,,,,
-1.93600 ,-1.32000 ,,,,
-1.93300 ,-1.32000 ,,,,
-1.93000 ,-1.32000 ,,,,
-1.92600 ,-1.36000 ,,,,
-1.92300 ,-1.32000 ,,,,
-1.92000 ,-1.36000 ,,,,
-1.91700 ,-1.36000 ,,,,
-1.91400 ,-1.40000 ,,,,
-1.91000 ,-1.36000 ,,,,
-1.90700 ,-1.36000 ,,,,
-1.90400 ,-1.36000 ,,,,
-1.90100 ,-1.36000 ,,,,
-1.89800 ,-1.40000 ,,,,
-1.89400 ,-1.40000 ,,,,
-1.89100 ,-1.40000 ,,,,
-1.88800 ,-1.40000 ,,,,
-1.88500 ,-1.44000 ,,,,
-1.88200 ,-1.44000 ,,,,
-1.87800 ,-1.44000 ,,,,
-1.87500 ,-1.44000 ,,,,
-1.87200 ,-1.48000 ,,,,
-1.86900 ,-1.44000 ,,,,
-1.86600 ,-1.44000 ,,,,
-1.86200 ,-1.48000 ,,,,
-1.85900 ,-1.48000 ,,,,
-1.85600 ,-1.52000 ,,,,
-1.85300 ,-1.52000 ,,,,
-1.85000 ,-1.56000 ,,,,
-1.84600 ,-1.56000 ,,,,
-1.84300 ,-1.60000 ,,,,
-1.84000 ,-1.60000 ,,,,
-1.83700 ,-1.64000 ,,,,
-1.83400 ,-1.64000 ,,,,
-1.83000 ,-1.68000 ,,,,
-1.82700 ,-1.72000 ,,,,
-1.82400 ,-1.72000 ,,,,
-1.82100 ,-1.72000 ,,,,
-1.81800 ,-1.76000 ,,,,
-1.81400 ,-1.76000 ,,,,
-1.81100 ,-1.80000 ,,,,
-1.80800 ,-1.80000 ,,,,
-1.80500 ,-1.80000 ,,,,
-1.80200 ,-1.84000 ,,,,
-1.79800 ,-1.84000 ,,,,
-1.79500 ,-1.88000 ,,,,
-1.79200 ,-1.84000 ,,,,
-1.78900 ,-1.88000 ,,,,
-1.78600 ,-1.88000 ,,,,
-1.78200 ,-1.88000 ,,,,
-1.77900 ,-1.88000 ,,,,
-1.77600 ,-1.92000 ,,,,
-1.77300 ,-1.92000 ,,,,
-1.77000 ,-1.92000 ,,,,
-1.76600 ,-1.92000 ,,,,
-1.76300 ,-1.96000 ,,,,
-1.76000 ,-2.00000 ,,,,
-1.75700 ,-1.96000 ,,,,
-1.75400 ,-2.00000 ,,,,
-1.75000 ,-2.00000 ,,,,
-1.74700 ,-2.00000 ,,,,
-1.74400 ,-2.00000 ,,,,
-1.74100 ,-1.96000 ,,,,
-1.73800 ,-1.96000 ,,,,
-1.73400 ,-1.88000 ,,,,
-1.73100 ,-1.88000 ,,,,
-1.72800 ,-1.80000 ,,,,
-1.72500 ,-1.68000 ,,,,
-1.72200 ,-1.56000 ,,,,
-1.71800 ,-1.44000 ,,,,
-1.71500 ,-1.28000 ,,,,
-1.71200 ,-1.12000 ,,,,
-1.70900 ,-0.92000 ,,,,
-1.70600 ,-0.72000 ,,,,
-1.70200 ,-0.48000 ,,,,
-1.69900 ,-0.28000 ,,,,
-1.69600 ,-0.04000 ,,,,
-1.69300 ,0.20000 ,,,,
-1.69000 ,0.48000 ,,,,
-1.68600 ,0.72000 ,,,,
-1.68300 ,0.96000 ,,,,
-1.68000 ,1.20000 ,,,,
-1.67700 ,1.48000 ,,,,
-1.67400 ,1.64000 ,,,,
-1.67000 ,1.88000 ,,,,
-1.66700 ,2.08000 ,,,,
-1.66400 ,2.24000 ,,,,
-1.66100 ,2.40000 ,,,,
-1.65800 ,2.56000 ,,,,
-1.65400 ,2.72000 ,,,,
-1.65100 ,2.80000 ,,,,
-1.64800 ,2.92000 ,,,,
-1.64500 ,3.00000 ,,,,
-1.64200 ,3.04000 ,,,,
-1.63800 ,3.08000 ,,,,
-1.63500 ,3.12000 ,,,,
-1.63200 ,3.16000 ,,,,
-1.62900 ,3.16000 ,,,,
-1.62600 ,3.16000 ,,,,
-1.62200 ,3.16000 ,,,,
-1.61900 ,3.12000 ,,,,
-1.61600 ,3.12000 ,,,,
-1.61300 ,3.04000 ,,,,
-1.61000 ,2.96000 ,,,,
-1.60600 ,2.92000 ,,,,
-1.60300 ,2.88000 ,,,,
-1.60000 ,2.80000 ,,,,
-1.59700 ,2.72000 ,,,,
-1.59400 ,2.68000 ,,,,
-1.59000 ,2.60000 ,,,,
-1.58700 ,2.52000 ,,,,
-1.58400 ,2.44000 ,,,,
-1.58100 ,2.36000 ,,,,
-1.57800 ,2.28000 ,,,,
-1.57400 ,2.20000 ,,,,
-1.57100 ,2.12000 ,,,,
-1.56800 ,2.08000 ,,,,
-1.56500 ,2.00000 ,,,,
-1.56200 ,1.92000 ,,,,
-1.55800 ,1.92000 ,,,,
-1.55500 ,1.84000 ,,,,
-1.55200 ,1.76000 ,,,,
-1.54900 ,1.76000 ,,,,
-1.54600 ,1.68000 ,,,,
-1.54200 ,1.64000 ,,,,
-1.53900 ,1.64000 ,,,,
-1.53600 ,1.56000 ,,,,
-1.53300 ,1.56000 ,,,,
-1.53000 ,1.52000 ,,,,
-1.52600 ,1.52000 ,,,,
-1.52300 ,1.48000 ,,,,
-1.52000 ,1.48000 ,,,,
-1.51700 ,1.48000 ,,,,
-1.51400 ,1.44000 ,,,,
-1.51000 ,1.44000 ,,,,
-1.50700 ,1.44000 ,,,,
-1.50400 ,1.44000 ,,,,
-1.50100 ,1.40000 ,,,,
-1.49800 ,1.36000 ,,,,
-1.49400 ,1.36000 ,,,,
-1.49100 ,1.32000 ,,,,
-1.48800 ,1.28000 ,,,,
-1.48500 ,1.28000 ,,,,
-1.48200 ,1.24000 ,,,,
-1.47800 ,1.20000 ,,,,
-1.47500 ,1.16000 ,,,,
-1.47200 ,1.12000 ,,,,
-1.46900 ,1.04000 ,,,,
-1.46600 ,1.04000 ,,,,
-1.46200 ,0.96000 ,,,,
-1.45900 ,0.96000 ,,,,
-1.45600 ,0.84000 ,,,,
-1.45300 ,0.84000 ,,,,
-1.45000 ,0.80000 ,,,,
-1.44600 ,0.72000 ,,,,
-1.44300 ,0.68000 ,,,,
-1.44000 ,0.64000 ,,,,
-1.43700 ,0.60000 ,,,,
-1.43400 ,0.60000 ,,,,
-1.43000 ,0.56000 ,,,,
-1.42700 ,0.52000 ,,,,
-1.42400 ,0.48000 ,,,,
-1.42100 ,0.48000 ,,,,
-1.41800 ,0.44000 ,,,,
-1.41400 ,0.44000 ,,,,
-1.41100 ,0.44000 ,,,,
-1.40800 ,0.44000 ,,,,
-1.40500 ,0.44000 ,,,,
-1.40200 ,0.44000 ,,,,
-1.39800 ,0.48000 ,,,,
-1.39500 ,0.44000 ,,,,
-1.39200 ,0.48000 ,,,,
-1.38900 ,0.48000 ,,,,
-1.38600 ,0.48000 ,,,,
-1.38200 ,0.52000 ,,,,
-1.37900 ,0.48000 ,,,,
-1.37600 ,0.56000 ,,,,
-1.37300 ,0.52000 ,,,,
-1.37000 ,0.52000 ,,,,
-1.36600 ,0.56000 ,,,,
-1.36300 ,0.60000 ,,,,
-1.36000 ,0.60000 ,,,,
-1.35700 ,0.64000 ,,,,
-1.35400 ,0.64000 ,,,,
-1.35000 ,0.64000 ,,,,
-1.34700 ,0.64000 ,,,,
-1.34400 ,0.68000 ,,,,
-1.34100 ,0.68000 ,,,,
-1.33800 ,0.68000 ,,,,
-1.33400 ,0.68000 ,,,,
-1.33100 ,0.68000 ,,,,
-1.32800 ,0.68000 ,,,,
-1.32500 ,0.68000 ,,,,
-1.32200 ,0.68000 ,,,,
-1.31800 ,0.68000 ,,,,
-1.31500 ,0.64000 ,,,,
-1.31200 ,0.60000 ,,,,
-1.30900 ,0.60000 ,,,,
-1.30600 ,0.56000 ,,,,
-1.30200 ,0.52000 ,,,,
-1.29900 ,0.52000 ,,,,
-1.29600 ,0.48000 ,,,,
-1.29300 ,0.48000 ,,,,
-1.29000 ,0.40000 ,,,,
-1.28600 ,0.36000 ,,,,
-1.28300 ,0.32000 ,,,,
-1.28000 ,0.28000 ,,,,
-1.27700 ,0.24000 ,,,,
-1.27400 ,0.20000 ,,,,
-1.27000 ,0.16000 ,,,,
-1.26700 ,0.16000 ,,,,
-1.26400 ,0.12000 ,,,,
-1.26100 ,0.08000 ,,,,
-1.25800 ,0.04000 ,,,,
-1.25400 ,0.00000 ,,,,
-1.25100 ,0.00000 ,,,,
-1.24800 ,-0.04000 ,,,,
-1.24500 ,-0.04000 ,,,,
-1.24200 ,-0.08000 ,,,,
-1.23800 ,-0.08000 ,,,,
-1.23500 ,-0.12000 ,,,,
-1.23200 ,-0.16000 ,,,,
-1.22900 ,-0.20000 ,,,,
-1.22600 ,-0.24000 ,,,,
-1.22200 ,-0.24000 ,,,,
-1.21900 ,-0.24000 ,,,,
-1.21600 ,-0.32000 ,,,,
-1.21300 ,-0.32000 ,,,,
-1.21000 ,-0.32000 ,,,,
-1.20600 ,-0.36000 ,,,,
-1.20300 ,-0.36000 ,,,,
-1.20000 ,-0.40000 ,,,,
-1.19700 ,-0.44000 ,,,,
-1.19400 ,-0.44000 ,,,,
-1.19000 ,-0.48000 ,,,,
-1.18700 ,-0.52000 ,,,,
-1.18400 ,-0.52000 ,,,,
-1.18100 ,-0.56000 ,,,,
-1.17800 ,-0.52000 ,,,,
-1.17400 ,-0.52000 ,,,,
-1.17100 ,-0.56000 ,,,,
-1.16800 ,-0.56000 ,,,,
-1.16500 ,-0.60000 ,,,,
-1.16200 ,-0.56000 ,,,,
-1.15800 ,-0.56000 ,,,,
-1.15500 ,-0.56000 ,,,,
-1.15200 ,-0.60000 ,,,,
-1.14900 ,-0.60000 ,,,,
-1.14600 ,-0.60000 ,,,,
-1.14200 ,-0.60000 ,,,,
-1.13900 ,-0.60000 ,,,,
-1.13600 ,-0.64000 ,,,,
-1.13300 ,-0.64000 ,,,,
-1.13000 ,-0.68000 ,,,,
-1.12600 ,-0.68000 ,,,,
-1.12300 ,-0.72000 ,,,,
-1.12000 ,-0.72000 ,,,,
-1.11700 ,-0.76000 ,,,,
-1.11400 ,-0.76000 ,,,,
-1.11000 ,-0.80000 ,,,,
-1.10700 ,-0.76000 ,,,,
-1.10400 ,-0.80000 ,,,,
-1.10100 ,-0.80000 ,,,,
-1.09800 ,-0.84000 ,,,,
-1.09400 ,-0.84000 ,,,,
-1.09100 ,-0.88000 ,,,,
-1.08800 ,-0.88000 ,,,,
-1.08500 ,-0.92000 ,,,,
-1.08200 ,-0.92000 ,,,,
-1.07800 ,-0.96000 ,,,,
-1.07500 ,-0.92000 ,,,,
-1.07200 ,-0.96000 ,,,,
-1.06900 ,-0.96000 ,,,,
-1.06600 ,-0.96000 ,,,,
-1.06200 ,-1.00000 ,,,,
-1.05900 ,-1.00000 ,,,,
-1.05600 ,-1.00000 ,,,,
-1.05300 ,-1.04000 ,,,,
-1.05000 ,-1.04000 ,,,,
-1.04600 ,-1.00000 ,,,,
-1.04300 ,-1.08000 ,,,,
-1.04000 ,-1.04000 ,,,,
-1.03700 ,-1.08000 ,,,,
-1.03400 ,-1.08000 ,,,,
-1.03000 ,-1.12000 ,,,,
-1.02700 ,-1.08000 ,,,,
-1.02400 ,-1.12000 ,,,,
-1.02100 ,-1.12000 ,,,,
-1.01800 ,-1.12000 ,,,,
-1.01400 ,-1.16000 ,,,,
-1.01100 ,-1.16000 ,,,,
-1.00800 ,-1.16000 ,,,,
-1.00500 ,-1.16000 ,,,,
-1.00200 ,-1.16000 ,,,,
-0.99840 ,-1.16000 ,,,,
-0.99520 ,-1.20000 ,,,,
-0.99200 ,-1.24000 ,,,,
-0.98880 ,-1.20000 ,,,,
-0.98560 ,-1.20000 ,,,,
-0.98240 ,-1.24000 ,,,,
-0.97920 ,-1.28000 ,,,,
-0.97600 ,-1.24000 ,,,,
-0.97280 ,-1.24000 ,,,,
-0.96960 ,-1.28000 ,,,,
-0.96640 ,-1.28000 ,,,,
-0.96320 ,-1.32000 ,,,,
-0.96000 ,-1.36000 ,,,,
-0.95680 ,-1.32000 ,,,,
-0.95360 ,-1.36000 ,,,,
-0.95040 ,-1.36000 ,,,,
-0.94720 ,-1.36000 ,,,,
-0.94400 ,-1.36000 ,,,,
-0.94080 ,-1.40000 ,,,,
-0.93760 ,-1.40000 ,,,,
-0.93440 ,-1.44000 ,,,,
-0.93120 ,-1.44000 ,,,,
-0.92800 ,-1.44000 ,,,,
-0.92480 ,-1.44000 ,,,,
-0.92160 ,-1.48000 ,,,,
-0.91840 ,-1.48000 ,,,,
-0.91520 ,-1.44000 ,,,,
-0.91200 ,-1.52000 ,,,,
-0.90880 ,-1.52000 ,,,,
-0.90560 ,-1.48000 ,,,,
-0.90240 ,-1.52000 ,,,,
-0.89920 ,-1.48000 ,,,,
-0.89600 ,-1.52000 ,,,,
-0.89280 ,-1.52000 ,,,,
-0.88960 ,-1.52000 ,,,,
-0.88640 ,-1.52000 ,,,,
-0.88320 ,-1.52000 ,,,,
-0.88000 ,-1.56000 ,,,,
-0.87680 ,-1.56000 ,,,,
-0.87360 ,-1.56000 ,,,,
-0.87040 ,-1.56000 ,,,,
-0.86720 ,-1.60000 ,,,,
-0.86400 ,-1.60000 ,,,,
-0.86080 ,-1.64000 ,,,,
-0.85760 ,-1.60000 ,,,,
-0.85440 ,-1.64000 ,,,,
-0.85120 ,-1.64000 ,,,,
-0.84800 ,-1.68000 ,,,,
-0.84480 ,-1.72000 ,,,,
-0.84160 ,-1.68000 ,,,,
-0.83840 ,-1.72000 ,,,,
-0.83520 ,-1.76000 ,,,,
-0.83200 ,-1.76000 ,,,,
-0.82880 ,-1.76000 ,,,,
-0.82560 ,-1.80000 ,,,,
-0.82240 ,-1.76000 ,,,,
-0.81920 ,-1.80000 ,,,,
-0.81600 ,-1.80000 ,,,,
-0.81280 ,-1.84000 ,,,,
-0.80960 ,-1.84000 ,,,,
-0.80640 ,-1.84000 ,,,,
-0.80320 ,-1.88000 ,,,,
-0.80000 ,-1.88000 ,,,,
-0.79680 ,-1.88000 ,,,,
-0.79360 ,-1.92000 ,,,,
-0.79040 ,-1.92000 ,,,,
-0.78720 ,-1.92000 ,,,,
-0.78400 ,-1.92000 ,,,,
-0.78080 ,-1.96000 ,,,,
-0.77760 ,-1.96000 ,,,,
-0.77440 ,-1.96000 ,,,,
-0.77120 ,-1.88000 ,,,,
-0.76800 ,-1.88000 ,,,,
-0.76480 ,-1.84000 ,,,,
-0.76160 ,-1.80000 ,,,,
-0.75840 ,-1.68000 ,,,,
-0.75520 ,-1.60000 ,,,,
-0.75200 ,-1.52000 ,,,,
-0.74880 ,-1.36000 ,,,,
-0.74560 ,-1.20000 ,,,,
-0.74240 ,-1.04000 ,,,,
-0.73920 ,-0.84000 ,,,,
-0.73600 ,-0.64000 ,,,,
-0.73280 ,-0.40000 ,,,,
-0.72960 ,-0.16000 ,,,,
-0.72640 ,0.08000 ,,,,
-0.72320 ,0.32000 ,,,,
-0.72000 ,0.60000 ,,,,
-0.71680 ,0.84000 ,,,,
-0.71360 ,1.12000 ,,,,
-0.71040 ,1.40000 ,,,,
-0.70720 ,1.60000 ,,,,
-0.70400 ,1.84000 ,,,,
-0.70080 ,2.12000 ,,,,
-0.69760 ,2.28000 ,,,,
-0.69440 ,2.48000 ,,,,
-0.69120 ,2.68000 ,,,,
-0.68800 ,2.84000 ,,,,
-0.68480 ,3.00000 ,,,,
-0.68160 ,3.08000 ,,,,
-0.67840 ,3.20000 ,,,,
-0.67520 ,3.28000 ,,,,
-0.67200 ,3.40000 ,,,,
-0.66880 ,3.44000 ,,,,
-0.66560 ,3.48000 ,,,,
-0.66240 ,3.52000 ,,,,
-0.65920 ,3.52000 ,,,,
-0.65600 ,3.52000 ,,,,
-0.65280 ,3.52000 ,,,,
-0.64960 ,3.48000 ,,,,
-0.64640 ,3.44000 ,,,,
-0.64320 ,3.40000 ,,,,
-0.64000 ,3.36000 ,,,,
-0.63680 ,3.28000 ,,,,
-0.63360 ,3.24000 ,,,,
-0.63040 ,3.16000 ,,,,
-0.62720 ,3.08000 ,,,,
-0.62400 ,3.00000 ,,,,
-0.62080 ,2.92000 ,,,,
-0.61760 ,2.84000 ,,,,
-0.61440 ,2.80000 ,,,,
-0.61120 ,2.72000 ,,,,
-0.60800 ,2.64000 ,,,,
-0.60480 ,2.60000 ,,,,
-0.60160 ,2.52000 ,,,,
-0.59840 ,2.44000 ,,,,
-0.59520 ,2.36000 ,,,,
-0.59200 ,2.32000 ,,,,
-0.58880 ,2.32000 ,,,,
-0.58560 ,2.24000 ,,,,
-0.58240 ,2.20000 ,,,,
-0.57920 ,2.12000 ,,,,
-0.57600 ,2.08000 ,,,,
-0.57280 ,2.04000 ,,,,
-0.56960 ,2.04000 ,,,,
-0.56640 ,2.00000 ,,,,
-0.56320 ,2.00000 ,,,,
-0.56000 ,2.00000 ,,,,
-0.55680 ,1.96000 ,,,,
-0.55360 ,1.96000 ,,,,
-0.55040 ,1.96000 ,,,,
-0.54720 ,1.92000 ,,,,
-0.54400 ,1.88000 ,,,,
-0.54080 ,1.88000 ,,,,
-0.53760 ,1.84000 ,,,,
-0.53440 ,1.84000 ,,,,
-0.53120 ,1.84000 ,,,,
-0.52800 ,1.84000 ,,,,
-0.52480 ,1.76000 ,,,,
-0.52160 ,1.76000 ,,,,
-0.51840 ,1.72000 ,,,,
-0.51520 ,1.68000 ,,,,
-0.51200 ,1.60000 ,,,,
-0.50880 ,1.56000 ,,,,
-0.50560 ,1.52000 ,,,,
-0.50240 ,1.48000 ,,,,
-0.49920 ,1.40000 ,,,,
-0.49600 ,1.36000 ,,,,
-0.49280 ,1.28000 ,,,,
-0.48960 ,1.24000 ,,,,
-0.48640 ,1.16000 ,,,,
-0.48320 ,1.12000 ,,,,
-0.48000 ,1.04000 ,,,,
-0.47680 ,1.00000 ,,,,
-0.47360 ,0.92000 ,,,,
-0.47040 ,0.84000 ,,,,
-0.46720 ,0.80000 ,,,,
-0.46400 ,0.76000 ,,,,
-0.46080 ,0.72000 ,,,,
-0.45760 ,0.68000 ,,,,
-0.45440 ,0.64000 ,,,,
-0.45120 ,0.60000 ,,,,
-0.44800 ,0.60000 ,,,,
-0.44480 ,0.56000 ,,,,
-0.44160 ,0.56000 ,,,,
-0.43840 ,0.52000 ,,,,
-0.43520 ,0.52000 ,,,,
-0.43200 ,0.52000 ,,,,
-0.42880 ,0.52000 ,,,,
-0.42560 ,0.56000 ,,,,
-0.42240 ,0.56000 ,,,,
-0.41920 ,0.52000 ,,,,
-0.41600 ,0.56000 ,,,,
-0.41280 ,0.56000 ,,,,
-0.40960 ,0.56000 ,,,,
-0.40640 ,0.60000 ,,,,
-0.40320 ,0.60000 ,,,,
-0.40000 ,0.60000 ,,,,
-0.39680 ,0.60000 ,,,,
-0.39360 ,0.64000 ,,,,
-0.39040 ,0.64000 ,,,,
-0.38720 ,0.64000 ,,,,
-0.38400 ,0.68000 ,,,,
-0.38080 ,0.68000 ,,,,
-0.37760 ,0.68000 ,,,,
-0.37440 ,0.68000 ,,,,
-0.37120 ,0.68000 ,,,,
-0.36800 ,0.68000 ,,,,
-0.36480 ,0.68000 ,,,,
-0.36160 ,0.64000 ,,,,
-0.35840 ,0.68000 ,,,,
-0.35520 ,0.64000 ,,,,
-0.35200 ,0.60000 ,,,,
-0.34880 ,0.64000 ,,,,
-0.34560 ,0.60000 ,,,,
-0.34240 ,0.60000 ,,,,
-0.33920 ,0.56000 ,,,,
-0.33600 ,0.56000 ,,,,
-0.33280 ,0.56000 ,,,,
-0.32960 ,0.48000 ,,,,
-0.32640 ,0.52000 ,,,,
-0.32320 ,0.44000 ,,,,
-0.32000 ,0.40000 ,,,,
-0.31680 ,0.40000 ,,,,
-0.31360 ,0.28000 ,,,,
-0.31040 ,0.28000 ,,,,
-0.30720 ,0.24000 ,,,,
-0.30400 ,0.20000 ,,,,
-0.30080 ,0.16000 ,,,,
-0.29760 ,0.12000 ,,,,
-0.29440 ,0.08000 ,,,,
-0.29120 ,0.04000 ,,,,
-0.28800 ,0.00000 ,,,,
-0.28480 ,-0.04000 ,,,,
-0.28160 ,-0.12000 ,,,,
-0.27840 ,-0.16000 ,,,,
-0.27520 ,-0.20000 ,,,,
-0.27200 ,-0.24000 ,,,,
-0.26880 ,-0.28000 ,,,,
-0.26560 ,-0.28000 ,,,,
-0.26240 ,-0.32000 ,,,,
-0.25920 ,-0.36000 ,,,,
-0.25600 ,-0.44000 ,,,,
-0.25280 ,-0.40000 ,,,,
-0.24960 ,-0.44000 ,,,,
-0.24640 ,-0.48000 ,,,,
-0.24320 ,-0.48000 ,,,,
-0.24000 ,-0.52000 ,,,,
-0.23680 ,-0.52000 ,,,,
-0.23360 ,-0.56000 ,,,,
-0.23040 ,-0.56000 ,,,,
-0.22720 ,-0.60000 ,,,,
-0.22400 ,-0.60000 ,,,,
-0.22080 ,-0.64000 ,,,,
-0.21760 ,-0.60000 ,,,,
-0.21440 ,-0.68000 ,,,,
-0.21120 ,-0.64000 ,,,,
-0.20800 ,-0.64000 ,,,,
-0.20480 ,-0.72000 ,,,,
-0.20160 ,-0.72000 ,,,,
-0.19840 ,-0.76000 ,,,,
-0.19520 ,-0.76000 ,,,,
-0.19200 ,-0.76000 ,,,,
-0.18880 ,-0.80000 ,,,,
-0.18560 ,-0.84000 ,,,,
-0.18240 ,-0.84000 ,,,,
-0.17920 ,-0.84000 ,,,,
-0.17600 ,-0.88000 ,,,,
-0.17280 ,-0.88000 ,,,,
-0.16960 ,-0.92000 ,,,,
-0.16640 ,-0.92000 ,,,,
-0.16320 ,-0.92000 ,,,,
-0.16000 ,-0.92000 ,,,,
-0.15680 ,-0.96000 ,,,,
-0.15360 ,-0.96000 ,,,,
-0.15040 ,-0.96000 ,,,,
-0.14720 ,-0.96000 ,,,,
-0.14400 ,-1.00000 ,,,,
-0.14080 ,-1.00000 ,,,,
-0.13760 ,-1.00000 ,,,,
-0.13440 ,-1.04000 ,,,,
-0.13120 ,-1.00000 ,,,,
-0.12800 ,-1.00000 ,,,,
-0.12480 ,-1.00000 ,,,,
-0.12160 ,-1.04000 ,,,,
-0.11840 ,-1.04000 ,,,,
-0.11520 ,-1.00000 ,,,,
-0.11200 ,-1.00000 ,,,,
-0.10880 ,-1.04000 ,,,,
-0.10560 ,-1.04000 ,,,,
-0.10240 ,-1.04000 ,,,,
-0.09920 ,-1.04000 ,,,,
-0.09600 ,-1.04000 ,,,,
-0.09280 ,-1.04000 ,,,,
-0.08960 ,-1.04000 ,,,,
-0.08640 ,-1.08000 ,,,,
-0.08320 ,-1.08000 ,,,,
-0.08000 ,-1.08000 ,,,,
-0.07680 ,-1.08000 ,,,,
-0.07360 ,-1.08000 ,,,,
-0.07040 ,-1.08000 ,,,,
-0.06720 ,-1.12000 ,,,,
-0.06400 ,-1.12000 ,,,,
-0.06080 ,-1.12000 ,,,,
-0.05760 ,-1.16000 ,,,,
-0.05440 ,-1.12000 ,,,,
-0.05120 ,-1.12000 ,,,,
-0.04800 ,-1.16000 ,,,,
-0.04480 ,-1.16000 ,,,,
-0.04160 ,-1.20000 ,,,,
-0.03840 ,-1.16000 ,,,,
-0.03520 ,-1.16000 ,,,,
-0.03200 ,-1.16000 ,,,,
-0.02880 ,-1.20000 ,,,,
-0.02560 ,-1.20000 ,,,,
-0.02240 ,-1.20000 ,,,,
-0.01920 ,-1.20000 ,,,,
-0.01600 ,-1.20000 ,,,,
-0.01280 ,-1.24000 ,,,,
-0.00960 ,-1.20000 ,,,,
-0.00640 ,-1.24000 ,,,,
-0.00320 ,-1.24000 ,,,,
0.00000 ,-1.24000 ,,,,
0.00320 ,-1.24000 ,,,,
0.00640 ,-1.24000 ,,,,
0.00960 ,-1.28000 ,,,,
0.01280 ,-1.28000 ,,,,
0.01600 ,-1.28000 ,,,,
0.01920 ,-1.28000 ,,,,
0.02240 ,-1.32000 ,,,,
0.02560 ,-1.36000 ,,,,
0.02880 ,-1.40000 ,,,,
0.03200 ,-1.36000 ,,,,
0.03520 ,-1.40000 ,,,,
0.03840 ,-1.40000 ,,,,
0.04160 ,-1.40000 ,,,,
0.04480 ,-1.44000 ,,,,
0.04800 ,-1.48000 ,,,,
0.05120 ,-1.44000 ,,,,
0.05440 ,-1.48000 ,,,,
0.05760 ,-1.48000 ,,,,
0.06080 ,-1.48000 ,,,,
0.06400 ,-1.52000 ,,,,
0.06720 ,-1.52000 ,,,,
0.07040 ,-1.52000 ,,,,
0.07360 ,-1.56000 ,,,,
0.07680 ,-1.52000 ,,,,
0.08000 ,-1.56000 ,,,,
0.08320 ,-1.56000 ,,,,
0.08640 ,-1.56000 ,,,,
0.08960 ,-1.60000 ,,,,
0.09280 ,-1.60000 ,,,,
0.09600 ,-1.60000 ,,,,
0.09920 ,-1.60000 ,,,,
0.10240 ,-1.60000 ,,,,
0.10560 ,-1.64000 ,,,,
0.10880 ,-1.64000 ,,,,
0.11200 ,-1.64000 ,,,,
0.11520 ,-1.68000 ,,,,
0.11840 ,-1.68000 ,,,,
0.12160 ,-1.68000 ,,,,
0.12480 ,-1.72000 ,,,,
0.12800 ,-1.68000 ,,,,
0.13120 ,-1.72000 ,,,,
0.13440 ,-1.72000 ,,,,
0.13760 ,-1.72000 ,,,,
0.14080 ,-1.76000 ,,,,
0.14400 ,-1.76000 ,,,,
0.14720 ,-1.76000 ,,,,
0.15040 ,-1.84000 ,,,,
0.15360 ,-1.84000 ,,,,
0.15680 ,-1.84000 ,,,,
0.16000 ,-1.88000 ,,,,
0.16320 ,-1.92000 ,,,,
0.16640 ,-1.92000 ,,,,
0.16960 ,-1.92000 ,,,,
0.17280 ,-1.92000 ,,,,
0.17600 ,-1.96000 ,,,,
0.17920 ,-1.96000 ,,,,
0.18240 ,-2.00000 ,,,,
0.18560 ,-2.00000 ,,,,
0.18880 ,-2.00000 ,,,,
0.19200 ,-2.00000 ,,,,
0.19520 ,-2.00000 ,,,,
0.19840 ,-2.04000 ,,,,
0.20160 ,-2.04000 ,,,,
0.20480 ,-2.04000 ,,,,
0.20800 ,-2.00000 ,,,,
0.21120 ,-2.00000 ,,,,
0.21440 ,-1.96000 ,,,,
0.21760 ,-1.92000 ,,,,
0.22080 ,-1.88000 ,,,,
0.22400 ,-1.80000 ,,,,
0.22720 ,-1.68000 ,,,,
0.23040 ,-1.60000 ,,,,
0.23360 ,-1.48000 ,,,,
0.23680 ,-1.32000 ,,,,
0.24000 ,-1.16000 ,,,,
0.24320 ,-0.96000 ,,,,
0.24640 ,-0.80000 ,,,,
0.24960 ,-0.56000 ,,,,
0.25280 ,-0.36000 ,,,,
0.25600 ,-0.12000 ,,,,
0.25920 ,0.12000 ,,,,
0.26240 ,0.36000 ,,,,
0.26560 ,0.64000 ,,,,
0.26880 ,0.88000 ,,,,
0.27200 ,1.16000 ,,,,
0.27520 ,1.40000 ,,,,
0.27840 ,1.64000 ,,,,
0.28160 ,1.84000 ,,,,
0.28480 ,2.04000 ,,,,
0.28800 ,2.28000 ,,,,
0.29120 ,2.44000 ,,,,
0.29440 ,2.64000 ,,,,
0.29760 ,2.76000 ,,,,
0.30080 ,2.92000 ,,,,
0.30400 ,3.00000 ,,,,
0.30720 ,3.12000 ,,,,
0.31040 ,3.20000 ,,,,
0.31360 ,3.28000 ,,,,
0.31680 ,3.32000 ,,,,
0.32000 ,3.36000 ,,,,
0.32320 ,3.40000 ,,,,
0.32640 ,3.40000 ,,,,
0.32960 ,3.36000 ,,,,
0.33280 ,3.36000 ,,,,
0.33600 ,3.32000 ,,,,
0.33920 ,3.28000 ,,,,
0.34240 ,3.20000 ,,,,
0.34560 ,3.16000 ,,,,
0.34880 ,3.08000 ,,,,
0.35200 ,3.00000 ,,,,
0.35520 ,2.92000 ,,,,
0.35840 ,2.84000 ,,,,
0.36160 ,2.76000 ,,,,
0.36480 ,2.68000 ,,,,
0.36800 ,2.60000 ,,,,
0.37120 ,2.52000 ,,,,
0.37440 ,2.44000 ,,,,
0.37760 ,2.36000 ,,,,
0.38080 ,2.28000 ,,,,
0.38400 ,2.20000 ,,,,
0.38720 ,2.08000 ,,,,
0.39040 ,2.04000 ,,,,
0.39360 ,1.96000 ,,,,
0.39680 ,1.88000 ,,,,
0.40000 ,1.88000 ,,,,
0.40320 ,1.84000 ,,,,
0.40640 ,1.80000 ,,,,
0.40960 ,1.76000 ,,,,
0.41280 ,1.72000 ,,,,
0.41600 ,1.68000 ,,,,
0.41920 ,1.68000 ,,,,
0.42240 ,1.64000 ,,,,
0.42560 ,1.64000 ,,,,
0.42880 ,1.64000 ,,,,
0.43200 ,1.64000 ,,,,
0.43520 ,1.60000 ,,,,
0.43840 ,1.56000 ,,,,
0.44160 ,1.56000 ,,,,
0.44480 ,1.52000 ,,,,
0.44800 ,1.48000 ,,,,
0.45120 ,1.52000 ,,,,
0.45440 ,1.44000 ,,,,
0.45760 ,1.44000 ,,,,
0.46080 ,1.40000 ,,,,
0.46400 ,1.36000 ,,,,
0.46720 ,1.28000 ,,,,
0.47040 ,1.24000 ,,,,
0.47360 ,1.16000 ,,,,
0.47680 ,1.12000 ,,,,
0.48000 ,1.08000 ,,,,
0.48320 ,1.04000 ,,,,
0.48640 ,1.00000 ,,,,
0.48960 ,0.92000 ,,,,
0.49280 ,0.88000 ,,,,
0.49600 ,0.80000 ,,,,
0.49920 ,0.76000 ,,,,
0.50240 ,0.72000 ,,,,
0.50560 ,0.68000 ,,,,
0.50880 ,0.64000 ,,,,
0.51200 ,0.56000 ,,,,
0.51520 ,0.52000 ,,,,
0.51840 ,0.48000 ,,,,
0.52160 ,0.48000 ,,,,
0.52480 ,0.44000 ,,,,
0.52800 ,0.40000 ,,,,
0.53120 ,0.36000 ,,,,
0.53440 ,0.36000 ,,,,
0.53760 ,0.36000 ,,,,
0.54080 ,0.36000 ,,,,
0.54400 ,0.36000 ,,,,
0.54720 ,0.32000 ,,,,
0.55040 ,0.32000 ,,,,
0.55360 ,0.32000 ,,,,
0.55680 ,0.32000 ,,,,
0.56000 ,0.32000 ,,,,
0.56320 ,0.36000 ,,,,
0.56640 ,0.36000 ,,,,
0.56960 ,0.40000 ,,,,
0.57280 ,0.40000 ,,,,
0.57600 ,0.40000 ,,,,
0.57920 ,0.44000 ,,,,
0.58240 ,0.48000 ,,,,
0.58560 ,0.48000 ,,,,
0.58880 ,0.52000 ,,,,
0.59200 ,0.48000 ,,,,
0.59520 ,0.52000 ,,,,
0.59840 ,0.52000 ,,,,
0.60160 ,0.56000 ,,,,
0.60480 ,0.56000 ,,,,
0.60800 ,0.60000 ,,,,
0.61120 ,0.56000 ,,,,
0.61440 ,0.60000 ,,,,
0.61760 ,0.60000 ,,,,
0.62080 ,0.64000 ,,,,
0.62400 ,0.60000 ,,,,
0.62720 ,0.56000 ,,,,
0.63040 ,0.56000 ,,,,
0.63360 ,0.56000 ,,,,
0.63680 ,0.52000 ,,,,
0.64000 ,0.52000 ,,,,
0.64320 ,0.48000 ,,,,
0.64640 ,0.48000 ,,,,
0.64960 ,0.48000 ,,,,
0.65280 ,0.44000 ,,,,
0.65600 ,0.36000 ,,,,
0.65920 ,0.32000 ,,,,
0.66240 ,0.28000 ,,,,
0.66560 ,0.24000 ,,,,
0.66880 ,0.24000 ,,,,
0.67200 ,0.20000 ,,,,
0.67520 ,0.16000 ,,,,
0.67840 ,0.08000 ,,,,
0.68160 ,0.08000 ,,,,
0.68480 ,0.04000 ,,,,
0.68800 ,0.00000 ,,,,
0.69120 ,0.00000 ,,,,
0.69440 ,-0.04000 ,,,,
0.69760 ,-0.08000 ,,,,
0.70080 ,-0.12000 ,,,,
0.70400 ,-0.16000 ,,,,
0.70720 ,-0.16000 ,,,,
0.71040 ,-0.20000 ,,,,
0.71360 ,-0.24000 ,,,,
0.71680 ,-0.28000 ,,,,
0.72000 ,-0.28000 ,,,,
0.72320 ,-0.36000 ,,,,
0.72640 ,-0.36000 ,,,,
0.72960 ,-0.40000 ,,,,
0.73280 ,-0.40000 ,,,,
0.73600 ,-0.44000 ,,,,
0.73920 ,-0.48000 ,,,,
0.74240 ,-0.48000 ,,,,
0.74560 ,-0.48000 ,,,,
0.74880 ,-0.52000 ,,,,
0.75200 ,-0.52000 ,,,,
0.75520 ,-0.56000 ,,,,
0.75840 ,-0.56000 ,,,,
0.76160 ,-0.60000 ,,,,
0.76480 ,-0.60000 ,,,,
0.76800 ,-0.60000 ,,,,
0.77120 ,-0.64000 ,,,,
0.77440 ,-0.64000 ,,,,
0.77760 ,-0.64000 ,,,,
0.78080 ,-0.68000 ,,,,
0.78400 ,-0.68000 ,,,,
0.78720 ,-0.68000 ,,,,
0.79040 ,-0.72000 ,,,,
0.79360 ,-0.72000 ,,,,
0.79680 ,-0.72000 ,,,,
0.80000 ,-0.72000 ,,,,
0.80320 ,-0.76000 ,,,,
0.80640 ,-0.76000 ,,,,
0.80960 ,-0.80000 ,,,,
0.81280 ,-0.80000 ,,,,
0.81600 ,-0.84000 ,,,,
0.81920 ,-0.84000 ,,,,
0.82240 ,-0.84000 ,,,,
0.82560 ,-0.88000 ,,,,
0.82880 ,-0.88000 ,,,,
0.83200 ,-0.92000 ,,,,
0.83520 ,-0.92000 ,,,,
0.83840 ,-0.92000 ,,,,
0.84160 ,-0.92000 ,,,,
0.84480 ,-0.96000 ,,,,
0.84800 ,-0.96000 ,,,,
0.85120 ,-0.96000 ,,,,
0.85440 ,-1.00000 ,,,,
0.85760 ,-0.96000 ,,,,
0.86080 ,-1.00000 ,,,,
0.86400 ,-0.96000 ,,,,
0.86720 ,-0.96000 ,,,,
0.87040 ,-1.00000 ,,,,
0.87360 ,-1.00000 ,,,,
0.87680 ,-1.00000 ,,,,
0.88000 ,-1.04000 ,,,,
0.88320 ,-1.04000 ,,,,
0.88640 ,-1.00000 ,,,,
0.88960 ,-1.04000 ,,,,
0.89280 ,-1.04000 ,,,,
0.89600 ,-1.08000 ,,,,
0.89920 ,-1.08000 ,,,,
0.90240 ,-1.08000 ,,,,
0.90560 ,-1.08000 ,,,,
0.90880 ,-1.08000 ,,,,
0.91200 ,-1.12000 ,,,,
0.91520 ,-1.08000 ,,,,
0.91840 ,-1.08000 ,,,,
0.92160 ,-1.16000 ,,,,
0.92480 ,-1.12000 ,,,,
0.92800 ,-1.16000 ,,,,
0.93120 ,-1.20000 ,,,,
0.93440 ,-1.16000 ,,,,
0.93760 ,-1.20000 ,,,,
0.94080 ,-1.20000 ,,,,
0.94400 ,-1.20000 ,,,,
0.94720 ,-1.24000 ,,,,
0.95040 ,-1.24000 ,,,,
0.95360 ,-1.24000 ,,,,
0.95680 ,-1.28000 ,,,,
0.96000 ,-1.28000 ,,,,
0.96320 ,-1.36000 ,,,,
0.96640 ,-1.36000 ,,,,
0.96960 ,-1.32000 ,,,,
0.97280 ,-1.36000 ,,,,
0.97600 ,-1.40000 ,,,,
0.97920 ,-1.40000 ,,,,
0.98240 ,-1.40000 ,,,,
0.98560 ,-1.40000 ,,,,
0.98880 ,-1.40000 ,,,,
0.99200 ,-1.44000 ,,,,
0.99520 ,-1.44000 ,,,,
0.99840 ,-1.44000 ,,,,
1.00200 ,-1.44000 ,,,,
1.00500 ,-1.48000 ,,,,
1.00800 ,-1.48000 ,,,,
1.01100 ,-1.48000 ,,,,
1.01400 ,-1.52000 ,,,,
1.01800 ,-1.52000 ,,,,
1.02100 ,-1.52000 ,,,,
1.02400 ,-1.56000 ,,,,
1.02700 ,-1.56000 ,,,,
1.03000 ,-1.56000 ,,,,
1.03400 ,-1.56000 ,,,,
1.03700 ,-1.60000 ,,,,
1.04000 ,-1.60000 ,,,,
1.04300 ,-1.60000 ,,,,
1.04600 ,-1.64000 ,,,,
1.05000 ,-1.64000 ,,,,
1.05300 ,-1.64000 ,,,,
1.05600 ,-1.68000 ,,,,
1.05900 ,-1.68000 ,,,,
1.06200 ,-1.68000 ,,,,
1.06600 ,-1.68000 ,,,,
1.06900 ,-1.72000 ,,,,
1.07200 ,-1.72000 ,,,,
1.07500 ,-1.72000 ,,,,
1.07800 ,-1.72000 ,,,,
1.08200 ,-1.76000 ,,,,
1.08500 ,-1.72000 ,,,,
1.08800 ,-1.72000 ,,,,
1.09100 ,-1.76000 ,,,,
1.09400 ,-1.76000 ,,,,
1.09800 ,-1.76000 ,,,,
1.10100 ,-1.80000 ,,,,
1.10400 ,-1.76000 ,,,,
1.10700 ,-1.80000 ,,,,
1.11000 ,-1.80000 ,,,,
1.11400 ,-1.84000 ,,,,
1.11700 ,-1.84000 ,,,,
1.12000 ,-1.84000 ,,,,
1.12300 ,-1.88000 ,,,,
1.12600 ,-1.88000 ,,,,
1.13000 ,-1.92000 ,,,,
1.13300 ,-1.96000 ,,,,
1.13600 ,-1.96000 ,,,,
1.13900 ,-1.96000 ,,,,
1.14200 ,-2.00000 ,,,,
1.14600 ,-2.04000 ,,,,
1.14900 ,-2.04000 ,,,,
1.15200 ,-2.08000 ,,,,
1.15500 ,-2.08000 ,,,,
1.15800 ,-2.08000 ,,,,
1.16200 ,-2.12000 ,,,,
1.16500 ,-2.12000 ,,,,
1.16800 ,-2.12000 ,,,,
1.17100 ,-2.16000 ,,,,
1.17400 ,-2.16000 ,,,,
1.17800 ,-2.16000 ,,,,
1.18100 ,-2.16000 ,,,,
1.18400 ,-2.16000 ,,,,
1.18700 ,-2.16000 ,,,,
1.19000 ,-2.16000 ,,,,
1.19400 ,-2.16000 ,,,,
1.19700 ,-2.12000 ,,,,
1.20000 ,-2.08000 ,,,,
1.20300 ,-2.04000 ,,,,
1.20600 ,-2.00000 ,,,,
1.21000 ,-1.92000 ,,,,
1.21300 ,-1.84000 ,,,,
1.21600 ,-1.72000 ,,,,
1.21900 ,-1.56000 ,,,,
1.22200 ,-1.48000 ,,,,
1.22600 ,-1.32000 ,,,,
1.22900 ,-1.12000 ,,,,
1.23200 ,-0.92000 ,,,,
1.23500 ,-0.72000 ,,,,
1.23800 ,-0.48000 ,,,,
1.24200 ,-0.28000 ,,,,
1.24500 ,-0.04000 ,,,,
1.24800 ,0.20000 ,,,,
1.25100 ,0.48000 ,,,,
1.25400 ,0.72000 ,,,,
1.25800 ,0.96000 ,,,,
1.26100 ,1.20000 ,,,,
1.26400 ,1.44000 ,,,,
1.26700 ,1.64000 ,,,,
1.27000 ,1.84000 ,,,,
1.27400 ,2.04000 ,,,,
1.27700 ,2.24000 ,,,,
1.28000 ,2.40000 ,,,,
1.28300 ,2.60000 ,,,,
1.28600 ,2.68000 ,,,,
1.29000 ,2.80000 ,,,,
1.29300 ,2.92000 ,,,,
1.29600 ,3.00000 ,,,,
1.29900 ,3.08000 ,,,,
1.30200 ,3.12000 ,,,,
1.30600 ,3.16000 ,,,,
1.30900 ,3.20000 ,,,,
1.31200 ,3.20000 ,,,,
1.31500 ,3.20000 ,,,,
1.31800 ,3.16000 ,,,,
1.32200 ,3.16000 ,,,,
1.32500 ,3.12000 ,,,,
1.32800 ,3.04000 ,,,,
1.33100 ,3.00000 ,,,,
1.33400 ,2.92000 ,,,,
1.33800 ,2.88000 ,,,,
1.34100 ,2.80000 ,,,,
1.34400 ,2.72000 ,,,,
1.34700 ,2.68000 ,,,,
1.35000 ,2.60000 ,,,,
1.35400 ,2.48000 ,,,,
1.35700 ,2.44000 ,,,,
1.36000 ,2.32000 ,,,,
1.36300 ,2.24000 ,,,,
1.36600 ,2.16000 ,,,,
1.37000 ,2.08000 ,,,,
1.37300 ,2.00000 ,,,,
1.37600 ,1.92000 ,,,,
1.37900 ,1.88000 ,,,,
1.38200 ,1.80000 ,,,,
1.38600 ,1.72000 ,,,,
1.38900 ,1.68000 ,,,,
1.39200 ,1.64000 ,,,,
1.39500 ,1.56000 ,,,,
1.39800 ,1.56000 ,,,,
1.40200 ,1.48000 ,,,,
1.40500 ,1.44000 ,,,,
1.40800 ,1.40000 ,,,,
1.41100 ,1.40000 ,,,,
1.41400 ,1.36000 ,,,,
1.41800 ,1.36000 ,,,,
1.42100 ,1.32000 ,,,,
1.42400 ,1.28000 ,,,,
1.42700 ,1.28000 ,,,,
1.43000 ,1.24000 ,,,,
1.43400 ,1.20000 ,,,,
1.43700 ,1.16000 ,,,,
1.44000 ,1.12000 ,,,,
1.44300 ,1.08000 ,,,,
1.44600 ,1.04000 ,,,,
1.45000 ,1.00000 ,,,,
1.45300 ,0.96000 ,,,,
1.45600 ,0.92000 ,,,,
1.45900 ,0.88000 ,,,,
1.46200 ,0.84000 ,,,,
1.46600 ,0.80000 ,,,,
1.46900 ,0.76000 ,,,,
1.47200 ,0.72000 ,,,,
1.47500 ,0.68000 ,,,,
1.47800 ,0.64000 ,,,,
1.48200 ,0.64000 ,,,,
1.48500 ,0.56000 ,,,,
1.48800 ,0.56000 ,,,,
1.49100 ,0.52000 ,,,,
1.49400 ,0.48000 ,,,,
1.49800 ,0.48000 ,,,,
1.50100 ,0.44000 ,,,,
1.50400 ,0.44000 ,,,,
1.50700 ,0.40000 ,,,,
1.51000 ,0.40000 ,,,,
1.51400 ,0.40000 ,,,,
1.51700 ,0.40000 ,,,,
1.52000 ,0.40000 ,,,,
1.52300 ,0.40000 ,,,,
1.52600 ,0.40000 ,,,,
1.53000 ,0.40000 ,,,,
1.53300 ,0.44000 ,,,,
1.53600 ,0.44000 ,,,,
1.53900 ,0.48000 ,,,,
1.54200 ,0.48000 ,,,,
1.54600 ,0.52000 ,,,,
1.54900 ,0.52000 ,,,,
1.55200 ,0.56000 ,,,,
1.55500 ,0.56000 ,,,,
1.55800 ,0.60000 ,,,,
1.56200 ,0.60000 ,,,,
1.56500 ,0.64000 ,,,,
1.56800 ,0.64000 ,,,,
1.57100 ,0.64000 ,,,,
1.57400 ,0.64000 ,,,,
1.57800 ,0.68000 ,,,,
1.58100 ,0.68000 ,,,,
1.58400 ,0.72000 ,,,,
1.58700 ,0.68000 ,,,,
1.59000 ,0.68000 ,,,,
1.59400 ,0.68000 ,,,,
1.59700 ,0.68000 ,,,,
1.60000 ,0.64000 ,,,,
1.60300 ,0.60000 ,,,,
1.60600 ,0.60000 ,,,,
1.61000 ,0.56000 ,,,,
1.61300 ,0.52000 ,,,,
1.61600 ,0.48000 ,,,,
1.61900 ,0.44000 ,,,,
1.62200 ,0.44000 ,,,,
1.62600 ,0.36000 ,,,,
1.62900 ,0.32000 ,,,,
1.63200 ,0.28000 ,,,,
1.63500 ,0.28000 ,,,,
1.63800 ,0.20000 ,,,,
1.64200 ,0.16000 ,,,,
1.64500 ,0.12000 ,,,,
1.64800 ,0.08000 ,,,,
1.65100 ,0.04000 ,,,,
1.65400 ,0.00000 ,,,,
1.65800 ,-0.04000 ,,,,
1.66100 ,-0.04000 ,,,,
1.66400 ,-0.12000 ,,,,
1.66700 ,-0.12000 ,,,,
1.67000 ,-0.20000 ,,,,
1.67400 ,-0.24000 ,,,,
1.67700 ,-0.24000 ,,,,
1.68000 ,-0.28000 ,,,,
1.68300 ,-0.36000 ,,,,
1.68600 ,-0.36000 ,,,,
1.69000 ,-0.40000 ,,,,
1.69300 ,-0.44000 ,,,,
1.69600 ,-0.48000 ,,,,
1.69900 ,-0.48000 ,,,,
1.70200 ,-0.52000 ,,,,
1.70600 ,-0.56000 ,,,,
1.70900 ,-0.56000 ,,,,
1.71200 ,-0.60000 ,,,,
1.71500 ,-0.64000 ,,,,
1.71800 ,-0.60000 ,,,,
1.72200 ,-0.64000 ,,,,
1.72500 ,-0.68000 ,,,,
1.72800 ,-0.68000 ,,,,
1.73100 ,-0.72000 ,,,,
1.73400 ,-0.68000 ,,,,
1.73800 ,-0.72000 ,,,,
1.74100 ,-0.72000 ,,,,
1.74400 ,-0.72000 ,,,,
1.74700 ,-0.72000 ,,,,
1.75000 ,-0.76000 ,,,,
1.75400 ,-0.76000 ,,,,
1.75700 ,-0.76000 ,,,,
1.76000 ,-0.76000 ,,,,
1.76300 ,-0.76000 ,,,,
1.76600 ,-0.80000 ,,,,
1.77000 ,-0.80000 ,,,,
1.77300 ,-0.84000 ,,,,
1.77600 ,-0.84000 ,,,,
1.77900 ,-0.88000 ,,,,
1.78200 ,-0.88000 ,,,,
1.78600 ,-0.88000 ,,,,
1.78900 ,-0.92000 ,,,,
1.79200 ,-0.88000 ,,,,
1.79500 ,-0.92000 ,,,,
1.79800 ,-0.96000 ,,,,
1.80200 ,-1.00000 ,,,,
1.80500 ,-0.96000 ,,,,
1.80800 ,-0.96000 ,,,,
1.81100 ,-1.00000 ,,,,
1.81400 ,-1.00000 ,,,,
1.81800 ,-1.00000 ,,,,
1.82100 ,-1.00000 ,,,,
1.82400 ,-1.00000 ,,,,
1.82700 ,-1.04000 ,,,,
1.83000 ,-1.00000 ,,,,
1.83400 ,-1.04000 ,,,,
1.83700 ,-1.04000 ,,,,
1.84000 ,-1.04000 ,,,,
1.84300 ,-1.04000 ,,,,
1.84600 ,-1.04000 ,,,,
1.85000 ,-1.08000 ,,,,
1.85300 ,-1.08000 ,,,,
1.85600 ,-1.04000 ,,,,
1.85900 ,-1.08000 ,,,,
1.86200 ,-1.08000 ,,,,
1.86600 ,-1.12000 ,,,,
1.86900 ,-1.12000 ,,,,
1.87200 ,-1.12000 ,,,,
1.87500 ,-1.08000 ,,,,
1.87800 ,-1.16000 ,,,,
1.88200 ,-1.12000 ,,,,
1.88500 ,-1.12000 ,,,,
1.88800 ,-1.16000 ,,,,
1.89100 ,-1.16000 ,,,,
1.89400 ,-1.16000 ,,,,
1.89800 ,-1.16000 ,,,,
1.90100 ,-1.16000 ,,,,
1.90400 ,-1.20000 ,,,,
1.90700 ,-1.20000 ,,,,
1.91000 ,-1.20000 ,,,,
1.91400 ,-1.20000 ,,,,
1.91700 ,-1.20000 ,,,,
1.92000 ,-1.20000 ,,,,
1.92300 ,-1.20000 ,,,,
1.92600 ,-1.24000 ,,,,
1.93000 ,-1.24000 ,,,,
1.93300 ,-1.24000 ,,,,
1.93600 ,-1.24000 ,,,,
1.93900 ,-1.24000 ,,,,
1.94200 ,-1.28000 ,,,,
1.94600 ,-1.28000 ,,,,
1.94900 ,-1.28000 ,,,,
1.95200 ,-1.28000 ,,,,
1.95500 ,-1.32000 ,,,,
1.95800 ,-1.32000 ,,,,
1.96200 ,-1.36000 ,,,,
1.96500 ,-1.40000 ,,,,
1.96800 ,-1.36000 ,,,,
1.97100 ,-1.40000 ,,,,
1.97400 ,-1.40000 ,,,,
1.97800 ,-1.40000 ,,,,
1.98100 ,-1.40000 ,,,,
1.98400 ,-1.44000 ,,,,
1.98700 ,-1.40000 ,,,,
1.99000 ,-1.40000 ,,,,
1.99400 ,-1.40000 ,,,,
1.99700 ,-1.40000 ,,,,
2.00000 ,-1.40000 ,,,,
2.00300 ,-1.40000 ,,,,
2.00600 ,-1.44000 ,,,,
2.01000 ,-1.40000 ,,,,
2.01300 ,-1.44000 ,,,,
2.01600 ,-1.48000 ,,,,
2.01900 ,-1.44000 ,,,,
2.02200 ,-1.44000 ,,,,
2.02600 ,-1.48000 ,,,,
2.02900 ,-1.48000 ,,,,
2.03200 ,-1.52000 ,,,,
2.03500 ,-1.52000 ,,,,
2.03800 ,-1.52000 ,,,,
2.04200 ,-1.52000 ,,,,
2.04500 ,-1.60000 ,,,,
2.04800 ,-1.56000 ,,,,
2.05100 ,-1.60000 ,,,,
2.05400 ,-1.60000 ,,,,
2.05800 ,-1.64000 ,,,,
2.06100 ,-1.64000 ,,,,
2.06400 ,-1.68000 ,,,,
2.06700 ,-1.72000 ,,,,
2.07000 ,-1.72000 ,,,,
2.07400 ,-1.72000 ,,,,
2.07700 ,-1.72000 ,,,,
2.08000 ,-1.76000 ,,,,
2.08300 ,-1.76000 ,,,,
2.08600 ,-1.80000 ,,,,
2.09000 ,-1.80000 ,,,,
2.09300 ,-1.84000 ,,,,
2.09600 ,-1.84000 ,,,,
2.09900 ,-1.88000 ,,,,
2.10200 ,-1.92000 ,,,,
2.10600 ,-1.88000 ,,,,
2.10900 ,-1.92000 ,,,,
2.11200 ,-1.96000 ,,,,
2.11500 ,-1.96000 ,,,,
2.11800 ,-2.00000 ,,,,
2.12200 ,-2.00000 ,,,,
2.12500 ,-2.00000 ,,,,
2.12800 ,-2.00000 ,,,,
2.13100 ,-2.04000 ,,,,
2.13400 ,-2.04000 ,,,,
2.13800 ,-2.04000 ,,,,
2.14100 ,-2.04000 ,,,,
2.14400 ,-2.04000 ,,,,
2.14700 ,-2.08000 ,,,,
2.15000 ,-2.00000 ,,,,
2.15400 ,-2.00000 ,,,,
2.15700 ,-1.96000 ,,,,
2.16000 ,-1.92000 ,,,,
2.16300 ,-1.84000 ,,,,
2.16600 ,-1.76000 ,,,,
2.17000 ,-1.72000 ,,,,
2.17300 ,-1.56000 ,,,,
2.17600 ,-1.44000 ,,,,
2.17900 ,-1.28000 ,,,,
2.18200 ,-1.12000 ,,,,
2.18600 ,-0.96000 ,,,,
2.18900 ,-0.76000 ,,,,
2.19200 ,-0.56000 ,,,,
2.19500 ,-0.32000 ,,,,
2.19800 ,-0.08000 ,,,,
2.20200 ,0.16000 ,,,,
2.20500 ,0.36000 ,,,,
2.20800 ,0.60000 ,,,,
2.21100 ,0.84000 ,,,,
2.21400 ,1.08000 ,,,,
2.21800 ,1.32000 ,,,,
2.22100 ,1.56000 ,,,,
2.22400 ,1.72000 ,,,,
2.22700 ,1.96000 ,,,,
2.23000 ,2.12000 ,,,,
2.23400 ,2.28000 ,,,,
2.23700 ,2.44000 ,,,,
2.24000 ,2.60000 ,,,,
2.24300 ,2.68000 ,,,,
2.24600 ,2.80000 ,,,,
2.25000 ,2.88000 ,,,,
2.25300 ,2.92000 ,,,,
2.25600 ,3.00000 ,,,,
2.25900 ,3.04000 ,,,,
2.26200 ,3.04000 ,,,,
2.26600 ,3.04000 ,,,,
2.26900 ,3.04000 ,,,,
2.27200 ,3.04000 ,,,,
2.27500 ,2.96000 ,,,,
2.27800 ,2.96000 ,,,,
2.28200 ,2.88000 ,,,,
2.28500 ,2.84000 ,,,,
2.28800 ,2.76000 ,,,,
2.29100 ,2.68000 ,,,,
2.29400 ,2.60000 ,,,,
2.29800 ,2.52000 ,,,,
2.30100 ,2.44000 ,,,,
2.30400 ,2.32000 ,,,,
2.30700 ,2.24000 ,,,,
2.31000 ,2.16000 ,,,,
2.31400 ,2.08000 ,,,,
2.31700 ,2.00000 ,,,,
2.32000 ,1.96000 ,,,,
2.32300 ,1.84000 ,,,,
2.32600 ,1.80000 ,,,,
2.33000 ,1.68000 ,,,,
2.33300 ,1.64000 ,,,,
2.33600 ,1.56000 ,,,,
2.33900 ,1.52000 ,,,,
2.34200 ,1.44000 ,,,,
2.34600 ,1.40000 ,,,,
2.34900 ,1.36000 ,,,,
2.35200 ,1.32000 ,,,,
2.35500 ,1.28000 ,,,,
2.35800 ,1.24000 ,,,,
2.36200 ,1.20000 ,,,,
2.36500 ,1.16000 ,,,,
2.36800 ,1.12000 ,,,,
2.37100 ,1.08000 ,,,,
2.37400 ,1.08000 ,,,,
2.37800 ,1.04000 ,,,,
2.38100 ,0.96000 ,,,,
2.38400 ,0.96000 ,,,,
2.38700 ,0.92000 ,,,,
2.39000 ,0.88000 ,,,,
2.39400 ,0.84000 ,,,,
2.39700 ,0.80000 ,,,,
2.40000 ,0.76000 ,,,,
2.40300 ,0.72000 ,,,,
2.40600 ,0.68000 ,,,,
2.41000 ,0.64000 ,,,,
2.41300 ,0.60000 ,,,,
2.41600 ,0.60000 ,,,,
2.41900 ,0.56000 ,,,,
2.42200 ,0.52000 ,,,,
2.42600 ,0.48000 ,,,,
2.42900 ,0.48000 ,,,,
2.43200 ,0.44000 ,,,,
2.43500 ,0.44000 ,,,,
2.43800 ,0.40000 ,,,,
2.44200 ,0.40000 ,,,,
2.44500 ,0.32000 ,,,,
2.44800 ,0.32000 ,,,,
2.45100 ,0.28000 ,,,,
2.45400 ,0.32000 ,,,,
2.45800 ,0.24000 ,,,,
2.46100 ,0.24000 ,,,,
2.46400 ,0.28000 ,,,,
2.46700 ,0.24000 ,,,,
2.47000 ,0.24000 ,,,,
2.47400 ,0.24000 ,,,,
2.47700 ,0.24000 ,,,,
2.48000 ,0.24000 ,,,,
2.48300 ,0.28000 ,,,,
2.48600 ,0.28000 ,,,,
2.49000 ,0.28000 ,,,,
2.49300 ,0.32000 ,,,,
2.49600 ,0.32000 ,,,,
2.49900 ,0.32000 ,,,,
2.50200 ,0.36000 ,,,,
2.50600 ,0.40000 ,,,,
2.50900 ,0.44000 ,,,,
2.51200 ,0.44000 ,,,,
2.51500 ,0.44000 ,,,,
2.51800 ,0.48000 ,,,,
2.52200 ,0.48000 ,,,,
2.52500 ,0.48000 ,,,,
2.52800 ,0.48000 ,,,,
2.53100 ,0.52000 ,,,,
2.53400 ,0.48000 ,,,,
2.53800 ,0.52000 ,,,,
2.54100 ,0.52000 ,,,,
2.54400 ,0.48000 ,,,,
2.54700 ,0.48000 ,,,,
2.55000 ,0.48000 ,,,,
2.55400 ,0.48000 ,,,,
2.55700 ,0.48000 ,,,,
2.56000 ,0.44000 ,,,,
2.56300 ,0.40000 ,,,,
2.56600 ,0.40000 ,,,,
2.57000 ,0.36000 ,,,,
2.57300 ,0.32000 ,,,,
2.57600 ,0.32000 ,,,,
2.57900 ,0.32000 ,,,,
2.58200 ,0.24000 ,,,,
2.58600 ,0.20000 ,,,,
2.58900 ,0.16000 ,,,,
2.59200 ,0.12000 ,,,,
2.59500 ,0.08000 ,,,,
2.59800 ,0.04000 ,,,,
2.60200 ,0.00000 ,,,,
2.60500 ,-0.04000 ,,,,
2.60800 ,-0.08000 ,,,,
2.61100 ,-0.12000 ,,,,
2.61400 ,-0.16000 ,,,,
2.61800 ,-0.20000 ,,,,
2.62100 ,-0.20000 ,,,,
2.62400 ,-0.24000 ,,,,
2.62700 ,-0.32000 ,,,,
2.63000 ,-0.32000 ,,,,
2.63400 ,-0.36000 ,,,,
2.63700 ,-0.36000 ,,,,
2.64000 ,-0.40000 ,,,,
2.64300 ,-0.44000 ,,,,
2.64600 ,-0.48000 ,,,,
2.65000 ,-0.48000 ,,,,
2.65300 ,-0.52000 ,,,,
2.65600 ,-0.52000 ,,,,
2.65900 ,-0.56000 ,,,,
2.66200 ,-0.60000 ,,,,
2.66600 ,-0.64000 ,,,,
2.66900 ,-0.60000 ,,,,
2.67200 ,-0.64000 ,,,,
2.67500 ,-0.68000 ,,,,
2.67800 ,-0.68000 ,,,,
2.68200 ,-0.68000 ,,,,
2.68500 ,-0.68000 ,,,,
2.68800 ,-0.72000 ,,,,
2.69100 ,-0.76000 ,,,,
2.69400 ,-0.76000 ,,,,
2.69800 ,-0.76000 ,,,,
2.70100 ,-0.76000 ,,,,
2.70400 ,-0.80000 ,,,,
2.70700 ,-0.80000 ,,,,
2.71000 ,-0.80000 ,,,,
2.71400 ,-0.84000 ,,,,
2.71700 ,-0.88000 ,,,,
2.72000 ,-0.88000 ,,,,
2.72300 ,-0.88000 ,,,,
2.72600 ,-0.88000 ,,,,
2.73000 ,-0.88000 ,,,,
2.73300 ,-0.92000 ,,,,
2.73600 ,-0.88000 ,,,,
2.73900 ,-0.92000 ,,,,
2.74200 ,-0.92000 ,,,,
2.74600 ,-1.00000 ,,,,
2.74900 ,-0.96000 ,,,,
2.75200 ,-0.96000 ,,,,
2.75500 ,-1.00000 ,,,,
2.75800 ,-1.00000 ,,,,
2.76200 ,-1.00000 ,,,,
2.76500 ,-1.00000 ,,,,
2.76800 ,-1.04000 ,,,,
2.77100 ,-1.04000 ,,,,
2.77400 ,-1.08000 ,,,,
2.77800 ,-1.04000 ,,,,
2.78100 ,-1.08000 ,,,,
2.78400 ,-1.08000 ,,,,
2.78700 ,-1.12000 ,,,,
2.79000 ,-1.08000 ,,,,
2.79400 ,-1.08000 ,,,,
2.79700 ,-1.12000 ,,,,
2.80000 ,-1.12000 ,,,,
2.80300 ,-1.12000 ,,,,
2.80600 ,-1.16000 ,,,,
2.81000 ,-1.16000 ,,,,
2.81300 ,-1.16000 ,,,,
2.81600 ,-1.16000 ,,,,
2.81900 ,-1.20000 ,,,,
2.82200 ,-1.20000 ,,,,
2.82600 ,-1.20000 ,,,,
2.82900 ,-1.20000 ,,,,
2.83200 ,-1.20000 ,,,,
2.83500 ,-1.24000 ,,,,
2.83800 ,-1.20000 ,,,,
2.84200 ,-1.24000 ,,,,
2.84500 ,-1.24000 ,,,,
2.84800 ,-1.24000 ,,,,
2.85100 ,-1.24000 ,,,,
2.85400 ,-1.28000 ,,,,
2.85800 ,-1.24000 ,,,,
2.86100 ,-1.28000 ,,,,
2.86400 ,-1.28000 ,,,,
2.86700 ,-1.28000 ,,,,
2.87000 ,-1.28000 ,,,,
2.87400 ,-1.32000 ,,,,
2.87700 ,-1.32000 ,,,,
2.88000 ,-1.32000 ,,,,
2.88300 ,-1.36000 ,,,,
2.88600 ,-1.36000 ,,,,
2.89000 ,-1.36000 ,,,,
2.89300 ,-1.36000 ,,,,
2.89600 ,-1.36000 ,,,,
2.89900 ,-1.44000 ,,,,
2.90200 ,-1.40000 ,,,,
2.90600 ,-1.44000 ,,,,
2.90900 ,-1.44000 ,,,,
2.91200 ,-1.44000 ,,,,
2.91500 ,-1.44000 ,,,,
2.91800 ,-1.48000 ,,,,
2.92200 ,-1.48000 ,,,,
2.92500 ,-1.48000 ,,,,
2.92800 ,-1.48000 ,,,,
2.93100 ,-1.52000 ,,,,
2.93400 ,-1.52000 ,,,,
2.93800 ,-1.52000 ,,,,
2.94100 ,-1.52000 ,,,,
2.94400 ,-1.52000 ,,,,
2.94700 ,-1.56000 ,,,,
2.95000 ,-1.56000 ,,,,
2.95400 ,-1.56000 ,,,,
2.95700 ,-1.60000 ,,,,
2.96000 ,-1.64000 ,,,,
2.96300 ,-1.60000 ,,,,
2.96600 ,-1.60000 ,,,,
2.97000 ,-1.60000 ,,,,
2.97300 ,-1.64000 ,,,,
2.97600 ,-1.68000 ,,,,
2.97900 ,-1.64000 ,,,,
2.98200 ,-1.68000 ,,,,
2.98600 ,-1.68000 ,,,,
2.98900 ,-1.68000 ,,,,
2.99200 ,-1.68000 ,,,,
2.99500 ,-1.68000 ,,,,
2.99800 ,-1.68000 ,,,,
3.00200 ,-1.72000 ,,,,
3.00500 ,-1.68000 ,,,,
3.00800 ,-1.72000 ,,,,
3.01100 ,-1.72000 ,,,,
3.01400 ,-1.72000 ,,,,
3.01800 ,-1.72000 ,,,,
3.02100 ,-1.72000 ,,,,
3.02400 ,-1.72000 ,,,,
3.02700 ,-1.76000 ,,,,
3.03000 ,-1.76000 ,,,,
3.03400 ,-1.80000 ,,,,
3.03700 ,-1.76000 ,,,,
3.04000 ,-1.76000 ,,,,
3.04300 ,-1.76000 ,,,,
3.04600 ,-1.76000 ,,,,
3.05000 ,-1.80000 ,,,,
3.05300 ,-1.76000 ,,,,
3.05600 ,-1.80000 ,,,,
3.05900 ,-1.80000 ,,,,
3.06200 ,-1.80000 ,,,,
3.06600 ,-1.84000 ,,,,
3.06900 ,-1.84000 ,,,,
3.07200 ,-1.84000 ,,,,
3.07500 ,-1.84000 ,,,,
3.07800 ,-1.88000 ,,,,
3.08200 ,-1.88000 ,,,,
3.08500 ,-1.92000 ,,,,
3.08800 ,-1.92000 ,,,,
3.09100 ,-1.92000 ,,,,
3.09400 ,-1.96000 ,,,,
3.09800 ,-1.92000 ,,,,
3.10100 ,-1.96000 ,,,,
3.10400 ,-1.96000 ,,,,
3.10700 ,-1.96000 ,,,,
3.11000 ,-1.96000 ,,,,
3.11400 ,-1.96000 ,,,,
3.11700 ,-2.00000 ,,,,
3.12000 ,-1.92000 ,,,,
3.12300 ,-1.96000 ,,,,
3.12600 ,-1.92000 ,,,,
3.13000 ,-1.92000 ,,,,
3.13300 ,-1.88000 ,,,,
3.13600 ,-1.80000 ,,,,
3.13900 ,-1.72000 ,,,,
3.14200 ,-1.64000 ,,,,
3.14600 ,-1.56000 ,,,,
3.14900 ,-1.36000 ,,,,
3.15200 ,-1.28000 ,,,,
3.15500 ,-1.08000 ,,,,
3.15800 ,-0.88000 ,,,,
3.16200 ,-0.68000 ,,,,
3.16500 ,-0.44000 ,,,,
3.16800 ,-0.20000 ,,,,
3.17100 ,0.00000 ,,,,
3.17400 ,0.28000 ,,,,
3.17800 ,0.52000 ,,,,
3.18100 ,0.80000 ,,,,
3.18400 ,1.08000 ,,,,
3.18700 ,1.32000 ,,,,
3.19000 ,0.00000 ,,,,
3.19400 ,0.00000 ,,,,
3.19700 ,0.00000 ,,,,
