TIME,CH1,SBP,DBP,Model,TBS1102C
-3.20000 ,-2.10000 ,113,74,Firmware Version,v2015-08-04-prequal4ch70_v1.3
-3.19700 ,-2.10000 ,,,,
-3.19400 ,-2.10000 ,,,Point Format,Y
-3.19000 ,-2.14000 ,,,Horizontal Units,S
-3.18700 ,-2.14000 ,,,Horizontal Scale,0.4
-3.18400 ,-2.14000 ,,,Sample Interval,0.0032
-3.18100 ,-2.18000 ,,,Filter Frequency,2.00E+08
-3.17800 ,-2.18000 ,,,Record Length,2000
-3.17400 ,-2.18000 ,,,Gating,0.0% to 100.0%
-3.17100 ,-2.18000 ,,,Probe Attenuation,10
-3.16800 ,-2.18000 ,,,Vertical Units,V
-3.16500 ,-2.22000 ,,,Vertical Offset,0
-3.16200 ,-2.26000 ,,,Vertical Scale,1
-3.15800 ,-2.22000 ,,,Label,
-3.15500 ,-2.26000 ,,,,
-3.15200 ,-2.26000 ,,,,
-3.14900 ,-2.26000 ,,,,
-3.14600 ,-2.30000 ,,,,
-3.14200 ,-2.30000 ,,,,
-3.13900 ,-2.30000 ,,,,
-3.13600 ,-2.30000 ,,,,
-3.13300 ,-2.34000 ,,,,
-3.13000 ,-2.34000 ,,,,
-3.12600 ,-2.38000 ,,,,
-3.12300 ,-2.38000 ,,,,
-3.12000 ,-2.38000 ,,,,
-3.11700 ,-2.42000 ,,,,
-3.11400 ,-2.54000 ,,,,
-3.11000 ,-2.62000 ,,,,
-3.10700 ,-2.62000 ,,,,
-3.10400 ,-2.54000 ,,,,
-3.10100 ,-2.50000 ,,,,
-3.09800 ,-2.54000 ,,,,
-3.09400 ,-2.62000 ,,,,
-3.09100 ,-2.74000 ,,,,
-3.08800 ,-2.78000 ,,,,
-3.08500 ,-2.70000 ,,,,
-3.08200 ,-2.66000 ,,,,
-3.07800 ,-2.66000 ,,,,
-3.07500 ,-2.74000 ,,,,
-3.07200 ,-2.82000 ,,,,
-3.06900 ,-2.90000 ,,,,
-3.06600 ,-2.86000 ,,,,
-3.06200 ,-2.74000 ,,,,
-3.05900 ,-2.66000 ,,,,
-3.05600 ,-2.70000 ,,,,
-3.05300 ,-2.70000 ,,,,
-3.05000 ,-2.58000 ,,,,
-3.04600 ,-2.30000 ,,,,
-3.04300 ,-2.10000 ,,,,
-3.04000 ,-1.90000 ,,,,
-3.03700 ,-1.74000 ,,,,
-3.03400 ,-1.50000 ,,,,
-3.03000 ,-1.18000 ,,,,
-3.02700 ,-0.86000 ,,,,
-3.02400 ,-0.50000 ,,,,
-3.02100 ,-0.26000 ,,,,
-3.01800 ,0.02000 ,,,,
-3.01400 ,0.34000 ,,,,
-3.01100 ,0.74000 ,,,,
-3.00800 ,1.02000 ,,,,
-3.00500 ,1.26000 ,,,,
-3.00200 ,1.46000 ,,,,
-2.99800 ,1.70000 ,,,,
-2.99500 ,1.98000 ,,,,
-2.99200 ,2.18000 ,,,,
-2.98900 ,2.34000 ,,,,
-2.98600 ,2.46000 ,,,,
-2.98200 ,2.58000 ,,,,
-2.97900 ,2.70000 ,,,,
-2.97600 ,2.74000 ,,,,
-2.97300 ,2.82000 ,,,,
-2.97000 ,2.86000 ,,,,
-2.96600 ,2.86000 ,,,,
-2.96300 ,2.86000 ,,,,
-2.96000 ,2.90000 ,,,,
-2.95700 ,2.86000 ,,,,
-2.95400 ,2.82000 ,,,,
-2.95000 ,2.78000 ,,,,
-2.94700 ,2.74000 ,,,,
-2.94400 ,2.70000 ,,,,
-2.94100 ,2.66000 ,,,,
-2.93800 ,2.58000 ,,,,
-2.93400 ,2.50000 ,,,,
-2.93100 ,2.46000 ,,,,
-2.92800 ,2.38000 ,,,,
-2.92500 ,2.30000 ,,,,
-2.92200 ,2.22000 ,,,,
-2.91800 ,2.14000 ,,,,
-2.91500 ,2.10000 ,,,,
-2.91200 ,2.02000 ,,,,
-2.90900 ,1.98000 ,,,,
-2.90600 ,1.90000 ,,,,
-2.90200 ,1.86000 ,,,,
-2.89900 ,1.82000 ,,,,
-2.89600 ,1.78000 ,,,,
-2.89300 ,1.74000 ,,,,
-2.89000 ,1.70000 ,,,,
-2.88600 ,1.66000 ,,,,
-2.88300 ,1.62000 ,,,,
-2.88000 ,1.62000 ,,,,
-2.87700 ,1.58000 ,,,,
-2.87400 ,1.58000 ,,,,
-2.87000 ,1.54000 ,,,,
-2.86700 ,1.50000 ,,,,
-2.86400 ,1.54000 ,,,,
-2.86100 ,1.50000 ,,,,
-2.85800 ,1.46000 ,,,,
-2.85400 ,1.50000 ,,,,
-2.85100 ,1.46000 ,,,,
-2.84800 ,1.46000 ,,,,
-2.84500 ,1.46000 ,,,,
-2.84200 ,1.50000 ,,,,
-2.83800 ,1.46000 ,,,,
-2.83500 ,1.46000 ,,,,
-2.83200 ,1.46000 ,,,,
-2.82900 ,1.46000 ,,,,
-2.82600 ,1.42000 ,,,,
-2.82200 ,1.42000 ,,,,
-2.81900 ,1.42000 ,,,,
-2.81600 ,1.38000 ,,,,
-2.81300 ,1.38000 ,,,,
-2.81000 ,1.38000 ,,,,
-2.80600 ,1.34000 ,,,,
-2.80300 ,1.30000 ,,,,
-2.80000 ,1.26000 ,,,,
-2.79700 ,1.22000 ,,,,
-2.79400 ,1.22000 ,,,,
-2.79000 ,1.14000 ,,,,
-2.78700 ,1.06000 ,,,,
-2.78400 ,0.98000 ,,,,
-2.78100 ,0.98000 ,,,,
-2.77800 ,0.90000 ,,,,
-2.77400 ,0.82000 ,,,,
-2.77100 ,0.74000 ,,,,
-2.76800 ,0.70000 ,,,,
-2.76500 ,0.70000 ,,,,
-2.76200 ,0.62000 ,,,,
-2.75800 ,0.58000 ,,,,
-2.75500 ,0.50000 ,,,,
-2.75200 ,0.46000 ,,,,
-2.74900 ,0.42000 ,,,,
-2.74600 ,0.38000 ,,,,
-2.74200 ,0.38000 ,,,,
-2.73900 ,0.34000 ,,,,
-2.73600 ,0.30000 ,,,,
-2.73300 ,0.30000 ,,,,
-2.73000 ,0.30000 ,,,,
-2.72600 ,0.30000 ,,,,
-2.72300 ,0.30000 ,,,,
-2.72000 ,0.30000 ,,,,
-2.71700 ,0.30000 ,,,,
-2.71400 ,0.26000 ,,,,
-2.71000 ,0.34000 ,,,,
-2.70700 ,0.34000 ,,,,
-2.70400 ,0.30000 ,,,,
-2.70100 ,0.34000 ,,,,
-2.69800 ,0.38000 ,,,,
-2.69400 ,0.38000 ,,,,
-2.69100 ,0.38000 ,,,,
-2.68800 ,0.42000 ,,,,
-2.68500 ,0.38000 ,,,,
-2.68200 ,0.42000 ,,,,
-2.67800 ,0.46000 ,,,,
-2.67500 ,0.46000 ,,,,
-2.67200 ,0.42000 ,,,,
-2.66900 ,0.42000 ,,,,
-2.66600 ,0.46000 ,,,,
-2.66200 ,0.42000 ,,,,
-2.65900 ,0.46000 ,,,,
-2.65600 ,0.42000 ,,,,
-2.65300 ,0.38000 ,,,,
-2.65000 ,0.38000 ,,,,
-2.64600 ,0.38000 ,,,,
-2.64300 ,0.38000 ,,,,
-2.64000 ,0.34000 ,,,,
-2.63700 ,0.30000 ,,,,
-2.63400 ,0.30000 ,,,,
-2.63000 ,0.26000 ,,,,
-2.62700 ,0.22000 ,,,,
-2.62400 ,0.18000 ,,,,
-2.62100 ,0.18000 ,,,,
-2.61800 ,0.10000 ,,,,
-2.61400 ,0.10000 ,,,,
-2.61100 ,0.06000 ,,,,
-2.60800 ,0.02000 ,,,,
-2.60500 ,-0.02000 ,,,,
-2.60200 ,-0.06000 ,,,,
-2.59800 ,-0.14000 ,,,,
-2.59500 ,-0.14000 ,,,,
-2.59200 ,-0.18000 ,,,,
-2.58900 ,-0.22000 ,,,,
-2.58600 ,-0.26000 ,,,,
-2.58200 ,-0.30000 ,,,,
-2.57900 ,-0.34000 ,,,,
-2.57600 ,-0.38000 ,,,,
-2.57300 ,-0.42000 ,,,,
-2.57000 ,-0.46000 ,,,,
-2.56600 ,-0.50000 ,,,,
-2.56300 ,-0.54000 ,,,,
-2.56000 ,-0.58000 ,,,,
-2.55700 ,-0.62000 ,,,,
-2.55400 ,-0.66000 ,,,,
-2.55000 ,-0.70000 ,,,,
-2.54700 ,-0.74000 ,,,,
-2.54400 ,-0.74000 ,,,,
-2.54100 ,-0.78000 ,,,,
-2.53800 ,-0.82000 ,,,,
-2.53400 ,-0.86000 ,,,,
-2.53100 ,-0.90000 ,,,,
-2.52800 ,-0.94000 ,,,,
-2.52500 ,-0.94000 ,,,,
-2.52200 ,-0.98000 ,,,,
-2.51800 ,-1.02000 ,,,,
-2.51500 ,-1.02000 ,,,,
-2.51200 ,-1.06000 ,,,,
-2.50900 ,-1.06000 ,,,,
-2.50600 ,-1.06000 ,,,,
-2.50200 ,-1.14000 ,,,,
-2.49900 ,-1.14000 ,,,,
-2.49600 ,-1.18000 ,,,,
-2.49300 ,-1.14000 ,,,,
-2.49000 ,-1.18000 ,,,,
-2.48600 ,-1.22000 ,,,,
-2.48300 ,-1.22000 ,,,,
-2.48000 ,-1.26000 ,,,,
-2.47700 ,-1.26000 ,,,,
-2.47400 ,-1.30000 ,,,,
-2.47000 ,-1.34000 ,,,,
-2.46700 ,-1.34000 ,,,,
-2.46400 ,-1.34000 ,,,,
-2.46100 ,-1.34000 ,,,,
-2.45800 ,-1.38000 ,,,,
-2.45400 ,-1.42000 ,,,,
-2.45100 ,-1.42000 ,,,,
-2.44800 ,-1.42000 ,,,,
-2.44500 ,-1.42000 ,,,,
-2.44200 ,-1.46000 ,,,,
-2.43800 ,-1.46000 ,,,,
-2.43500 ,-1.50000 ,,,,
-2.43200 ,-1.50000 ,,,,
-2.42900 ,-1.50000 ,,,,
-2.42600 ,-1.50000 ,,,,
-2.42200 ,-1.54000 ,,,,
-2.41900 ,-1.54000 ,,,,
-2.41600 ,-1.58000 ,,,,
-2.41300 ,-1.58000 ,,,,
-2.41000 ,-1.58000 ,,,,
-2.40600 ,-1.58000 ,,,,
-2.40300 ,-1.58000 ,,,,
-2.40000 ,-1.62000 ,,,,
-2.39700 ,-1.62000 ,,,,
-2.39400 ,-1.62000 ,,,,
-2.39000 ,-1.62000 ,,,,
-2.38700 ,-1.66000 ,,,,
-2.38400 ,-1.66000 ,,,,
-2.38100 ,-1.66000 ,,,,
-2.37800 ,-1.70000 ,,,,
-2.37400 ,-1.66000 ,,,,
-2.37100 ,-1.66000 ,,,,
-2.36800 ,-1.66000 ,,,,
-2.36500 ,-1.66000 ,,,,
-2.36200 ,-1.70000 ,,,,
-2.35800 ,-1.66000 ,,,,
-2.35500 ,-1.70000 ,,,,
-2.35200 ,-1.70000 ,,,,
-2.34900 ,-1.70000 ,,,,
-2.34600 ,-1.70000 ,,,,
-2.34200 ,-1.74000 ,,,,
-2.33900 ,-1.70000 ,,,,
-2.33600 ,-1.74000 ,,,,
-2.33300 ,-1.74000 ,,,,
-2.33000 ,-1.74000 ,,,,
-2.32600 ,-1.74000 ,,,,
-2.32300 ,-1.74000 ,,,,
-2.32000 ,-1.82000 ,,,,
-2.31700 ,-1.78000 ,,,,
-2.31400 ,-1.82000 ,,,,
-2.31000 ,-1.82000 ,,,,
-2.30700 ,-1.82000 ,,,,
-2.30400 ,-1.86000 ,,,,
-2.30100 ,-1.90000 ,,,,
-2.29800 ,-1.86000 ,,,,
-2.29400 ,-1.90000 ,,,,
-2.29100 ,-1.90000 ,,,,
-2.28800 ,-1.94000 ,,,,
-2.28500 ,-1.94000 ,,,,
-2.28200 ,-1.98000 ,,,,
-2.27800 ,-2.02000 ,,,,
-2.27500 ,-2.02000 ,,,,
-2.27200 ,-2.06000 ,,,,
-2.26900 ,-2.10000 ,,,,
-2.26600 ,-2.10000 ,,,,
-2.26200 ,-2.14000 ,,,,
-2.25900 ,-2.10000 ,,,,
-2.25600 ,-2.14000 ,,,,
-2.25300 ,-2.14000 ,,,,
-2.25000 ,-2.14000 ,,,,
-2.24600 ,-2.10000 ,,,,
-2.24300 ,-2.06000 ,,,,
-2.24000 ,-2.02000 ,,,,
-2.23700 ,-1.90000 ,,,,
-2.23400 ,-1.86000 ,,,,
-2.23000 ,-1.66000 ,,,,
-2.22700 ,-1.50000 ,,,,
-2.22400 ,-1.34000 ,,,,
-2.22100 ,-1.10000 ,,,,
-2.21800 ,-0.86000 ,,,,
-2.21400 ,-0.58000 ,,,,
-2.21100 ,-0.30000 ,,,,
-2.20800 ,-0.02000 ,,,,
-2.20500 ,0.30000 ,,,,
-2.20200 ,0.58000 ,,,,
-2.19800 ,0.90000 ,,,,
-2.19500 ,1.14000 ,,,,
-2.19200 ,1.38000 ,,,,
-2.18900 ,1.62000 ,,,,
-2.18600 ,1.90000 ,,,,
-2.18200 ,2.06000 ,,,,
-2.17900 ,2.22000 ,,,,
-2.17600 ,2.42000 ,,,,
-2.17300 ,2.54000 ,,,,
-2.17000 ,2.66000 ,,,,
-2.16600 ,2.74000 ,,,,
-2.16300 ,2.82000 ,,,,
-2.16000 ,2.86000 ,,,,
-2.15700 ,2.90000 ,,,,
-2.15400 ,2.94000 ,,,,
-2.15000 ,2.94000 ,,,,
-2.14700 ,2.94000 ,,,,
-2.14400 ,2.94000 ,,,,
-2.14100 ,2.90000 ,,,,
-2.13800 ,2.90000 ,,,,
-2.13400 ,2.86000 ,,,,
-2.13100 ,2.74000 ,,,,
-2.12800 ,2.70000 ,,,,
-2.12500 ,2.62000 ,,,,
-2.12200 ,2.54000 ,,,,
-2.11800 ,2.46000 ,,,,
-2.11500 ,2.42000 ,,,,
-2.11200 ,2.34000 ,,,,
-2.10900 ,2.22000 ,,,,
-2.10600 ,2.14000 ,,,,
-2.10200 ,2.06000 ,,,,
-2.09900 ,1.98000 ,,,,
-2.09600 ,1.90000 ,,,,
-2.09300 ,1.82000 ,,,,
-2.09000 ,1.74000 ,,,,
-2.08600 ,1.70000 ,,,,
-2.08300 ,1.62000 ,,,,
-2.08000 ,1.58000 ,,,,
-2.07700 ,1.54000 ,,,,
-2.07400 ,1.50000 ,,,,
-2.07000 ,1.42000 ,,,,
-2.06700 ,1.38000 ,,,,
-2.06400 ,1.34000 ,,,,
-2.06100 ,1.34000 ,,,,
-2.05800 ,1.26000 ,,,,
-2.05400 ,1.22000 ,,,,
-2.05100 ,1.22000 ,,,,
-2.04800 ,1.18000 ,,,,
-2.04500 ,1.22000 ,,,,
-2.04200 ,1.22000 ,,,,
-2.03800 ,1.14000 ,,,,
-2.03500 ,1.14000 ,,,,
-2.03200 ,1.14000 ,,,,
-2.02900 ,1.10000 ,,,,
-2.02600 ,1.06000 ,,,,
-2.02200 ,1.06000 ,,,,
-2.01900 ,1.06000 ,,,,
-2.01600 ,1.02000 ,,,,
-2.01300 ,1.02000 ,,,,
-2.01000 ,1.02000 ,,,,
-2.00600 ,0.94000 ,,,,
-2.00300 ,0.90000 ,,,,
-2.00000 ,0.86000 ,,,,
-1.99700 ,0.82000 ,,,,
-1.99400 ,0.74000 ,,,,
-1.99000 ,0.66000 ,,,,
-1.98700 ,0.62000 ,,,,
-1.98400 ,0.58000 ,,,,
-1.98100 ,0.50000 ,,,,
-1.97800 ,0.42000 ,,,,
-1.97400 ,0.34000 ,,,,
-1.97100 ,0.30000 ,,,,
-1.96800 ,0.26000 ,,,,
-1.96500 ,0.22000 ,,,,
-1.96200 ,0.18000 ,,,,
-1.95800 ,0.10000 ,,,,
-1.95500 ,0.06000 ,,,,
-1.95200 ,-0.02000 ,,,,
-1.94900 ,-0.02000 ,,,,
-1.94600 ,-0.06000 ,,,,
-1.94200 ,-0.10000 ,,,,
-1.93900 ,-0.06000 ,,,,
-1.93600 ,-0.10000 ,,,,
-1.93300 ,-0.10000 ,,,,
-1.93000 ,-0.10000 ,,,,
-1.92600 ,-0.10000 ,,,,
-1.92300 ,-0.10000 ,,,,
-1.92000 ,-0.06000 ,,,,
-1.91700 ,-0.02000 ,,,,
-1.91400 ,-0.02000 ,,,,
-1.91000 ,0.02000 ,,,,
-1.90700 ,0.06000 ,,,,
-1.90400 ,0.06000 ,,,,
-1.90100 ,0.10000 ,,,,
-1.89800 ,0.14000 ,,,,
-1.89400 ,0.14000 ,,,,
-1.89100 ,0.18000 ,,,,
-1.88800 ,0.22000 ,,,,
-1.88500 ,0.22000 ,,,,
-1.88200 ,0.22000 ,,,,
-1.87800 ,0.26000 ,,,,
-1.87500 ,0.30000 ,,,,
-1.87200 ,0.26000 ,,,,
-1.86900 ,0.26000 ,,,,
-1.86600 ,0.26000 ,,,,
-1.86200 ,0.30000 ,,,,
-1.85900 ,0.26000 ,,,,
-1.85600 ,0.26000 ,,,,
-1.85300 ,0.26000 ,,,,
-1.85000 ,0.22000 ,,,,
-1.84600 ,0.22000 ,,,,
-1.84300 ,0.18000 ,,,,
-1.84000 ,0.18000 ,,,,
-1.83700 ,0.14000 ,,,,
-1.83400 ,0.10000 ,,,,
-1.83000 ,0.06000 ,,,,
-1.82700 ,0.02000 ,,,,
-1.82400 ,-0.02000 ,,,,
-1.82100 ,-0.10000 ,,,,
-1.81800 ,-0.10000 ,,,,
-1.81400 ,-0.14000 ,,,,
-1.81100 ,-0.18000 ,,,,
-1.80800 ,-0.26000 ,,,,
-1.80500 ,-0.26000 ,,,,
-1.80200 ,-0.34000 ,,,,
-1.79800 ,-0.38000 ,,,,
-1.79500 ,-0.46000 ,,,,
-1.79200 ,-0.46000 ,,,,
-1.78900 ,-0.54000 ,,,,
-1.78600 ,-0.58000 ,,,,
-1.78200 ,-0.62000 ,,,,
-1.77900 ,-0.70000 ,,,,
-1.77600 ,-0.70000 ,,,,
-1.77300 ,-0.78000 ,,,,
-1.77000 ,-0.78000 ,,,,
-1.76600 ,-0.86000 ,,,,
-1.76300 ,-0.90000 ,,,,
-1.76000 ,-0.94000 ,,,,
-1.75700 ,-1.02000 ,,,,
-1.75400 ,-1.02000 ,,,,
-1.75000 ,-1.06000 ,,,,
-1.74700 ,-1.14000 ,,,,
-1.74400 ,-1.14000 ,,,,
-1.74100 ,-1.18000 ,,,,
-1.73800 ,-1.22000 ,,,,
-1.73400 ,-1.26000 ,,,,
-1.73100 ,-1.30000 ,,,,
-1.72800 ,-1.34000 ,,,,
-1.72500 ,-1.34000 ,,,,
-1.72200 ,-1.38000 ,,,,
-1.71800 ,-1.42000 ,,,,
-1.71500 ,-1.46000 ,,,,
-1.71200 ,-1.46000 ,,,,
-1.70900 ,-1.50000 ,,,,
-1.70600 ,-1.54000 ,,,,
-1.70200 ,-1.54000 ,,,,
-1.69900 ,-1.62000 ,,,,
-1.69600 ,-1.58000 ,,,,
-1.69300 ,-1.62000 ,,,,
-1.69000 ,-1.66000 ,,,,
-1.68600 ,-1.70000 ,,,,
-1.68300 ,-1.70000 ,,,,
-1.68000 ,-1.74000 ,,,,
-1.67700 ,-1.74000 ,,,,
-1.67400 ,-1.78000 ,,,,
-1.67000 ,-1.78000 ,,,,
-1.66700 ,-1.78000 ,,,,
-1.66400 ,-1.82000 ,,,,
-1.66100 ,-1.82000 ,,,,
-1.65800 ,-1.86000 ,,,,
-1.65400 ,-1.86000 ,,,,
-1.65100 ,-1.86000 ,,,,
-1.64800 ,-1.86000 ,,,,
-1.64500 ,-1.90000 ,,,,
-1.64200 ,-1.90000 ,,,,
-1.63800 ,-1.90000 ,,,,
-1.63500 ,-1.90000 ,,,,
-1.63200 ,-1.94000 ,,,,
-1.62900 ,-1.94000 ,,,,
-1.62600 ,-1.98000 ,,,,
-1.62200 ,-1.94000 ,,,,
-1.61900 ,-1.98000 ,,,,
-1.61600 ,-1.98000 ,,,,
-1.61300 ,-1.98000 ,,,,
-1.61000 ,-1.98000 ,,,,
-1.60600 ,-1.98000 ,,,,
-1.60300 ,-1.98000 ,,,,
-1.60000 ,-2.02000 ,,,,
-1.59700 ,-2.02000 ,,,,
-1.59400 ,-2.02000 ,,,,
-1.59000 ,-2.02000 ,,,,
-1.58700 ,-2.02000 ,,,,
-1.58400 ,-2.02000 ,,,,
-1.58100 ,-2.02000 ,,,,
-1.57800 ,-2.06000 ,,,,
-1.57400 ,-2.06000 ,,,,
-1.57100 ,-2.06000 ,,,,
-1.56800 ,-2.02000 ,,,,
-1.56500 ,-2.06000 ,,,,
-1.56200 ,-2.06000 ,,,,
-1.55800 ,-2.06000 ,,,,
-1.55500 ,-2.06000 ,,,,
-1.55200 ,-2.06000 ,,,,
-1.54900 ,-2.10000 ,,,,
-1.54600 ,-2.10000 ,,,,
-1.54200 ,-2.10000 ,,,,
-1.53900 ,-2.14000 ,,,,
-1.53600 ,-2.14000 ,,,,
-1.53300 ,-2.14000 ,,,,
-1.53000 ,-2.22000 ,,,,
-1.52600 ,-2.18000 ,,,,
-1.52300 ,-2.22000 ,,,,
-1.52000 ,-2.26000 ,,,,
-1.51700 ,-2.26000 ,,,,
-1.51400 ,-2.26000 ,,,,
-1.51000 ,-2.30000 ,,,,
-1.50700 ,-2.30000 ,,,,
-1.50400 ,-2.30000 ,,,,
-1.50100 ,-2.34000 ,,,,
-1.49800 ,-2.30000 ,,,,
-1.49400 ,-2.30000 ,,,,
-1.49100 ,-2.30000 ,,,,
-1.48800 ,-2.26000 ,,,,
-1.48500 ,-2.18000 ,,,,
-1.48200 ,-2.14000 ,,,,
-1.47800 ,-2.06000 ,,,,
-1.47500 ,-1.94000 ,,,,
-1.47200 ,-1.78000 ,,,,
-1.46900 ,-1.58000 ,,,,
-1.46600 ,-1.42000 ,,,,
-1.46200 ,-1.14000 ,,,,
-1.45900 ,-0.90000 ,,,,
-1.45600 ,-0.66000 ,,,,
-1.45300 ,-0.34000 ,,,,
-1.45000 ,-0.06000 ,,,,
-1.44600 ,0.22000 ,,,,
-1.44300 ,0.54000 ,,,,
-1.44000 ,0.78000 ,,,,
-1.43700 ,1.06000 ,,,,
-1.43400 ,1.34000 ,,,,
-1.43000 ,1.54000 ,,,,
-1.42700 ,1.78000 ,,,,
-1.42400 ,1.98000 ,,,,
-1.42100 ,2.14000 ,,,,
-1.41800 ,2.30000 ,,,,
-1.41400 ,2.46000 ,,,,
-1.41100 ,2.54000 ,,,,
-1.40800 ,2.62000 ,,,,
-1.40500 ,2.70000 ,,,,
-1.40200 ,2.74000 ,,,,
-1.39800 ,2.82000 ,,,,
-1.39500 ,2.82000 ,,,,
-1.39200 ,2.82000 ,,,,
-1.38900 ,2.82000 ,,,,
-1.38600 ,2.82000 ,,,,
-1.38200 ,2.78000 ,,,,
-1.37900 ,2.78000 ,,,,
-1.37600 ,2.70000 ,,,,
-1.37300 ,2.66000 ,,,,
-1.37000 ,2.62000 ,,,,
-1.36600 ,2.54000 ,,,,
-1.36300 ,2.46000 ,,,,
-1.36000 ,2.38000 ,,,,
-1.35700 ,2.30000 ,,,,
-1.35400 ,2.26000 ,,,,
-1.35000 ,2.18000 ,,,,
-1.34700 ,2.14000 ,,,,
-1.34400 ,2.02000 ,,,,
-1.34100 ,1.94000 ,,,,
-1.33800 ,1.90000 ,,,,
-1.33400 ,1.86000 ,,,,
-1.33100 ,1.78000 ,,,,
-1.32800 ,1.70000 ,,,,
-1.32500 ,1.66000 ,,,,
-1.32200 ,1.62000 ,,,,
-1.31800 ,1.58000 ,,,,
-1.31500 ,1.50000 ,,,,
-1.31200 ,1.50000 ,,,,
-1.30900 ,1.42000 ,,,,
-1.30600 ,1.42000 ,,,,
-1.30200 ,1.38000 ,,,,
-1.29900 ,1.34000 ,,,,
-1.29600 ,1.38000 ,,,,
-1.29300 ,1.34000 ,,,,
-1.29000 ,1.30000 ,,,,
-1.28600 ,1.30000 ,,,,
-1.28300 ,1.30000 ,,,,
-1.28000 ,1.30000 ,,,,
-1.27700 ,1.30000 ,,,,
-1.27400 ,1.30000 ,,,,
-1.27000 ,1.30000 ,,,,
-1.26700 ,1.26000 ,,,,
-1.26400 ,1.30000 ,,,,
-1.26100 ,1.26000 ,,,,
-1.25800 ,1.26000 ,,,,
-1.25400 ,1.26000 ,,,,
-1.25100 ,1.22000 ,,,,
-1.24800 ,1.22000 ,,,,
-1.24500 ,1.22000 ,,,,
-1.24200 ,1.18000 ,,,,
-1.23800 ,1.14000 ,,,,
-1.23500 ,1.10000 ,,,,
-1.23200 ,1.02000 ,,,,
-1.22900 ,0.98000 ,,,,
-1.22600 ,0.94000 ,,,,
-1.22200 ,0.90000 ,,,,
-1.21900 ,0.86000 ,,,,
-1.21600 ,0.78000 ,,,,
-1.21300 ,0.70000 ,,,,
-1.21000 ,0.62000 ,,,,
-1.20600 ,0.58000 ,,,,
-1.20300 ,0.54000 ,,,,
-1.20000 ,0.46000 ,,,,
-1.19700 ,0.38000 ,,,,
-1.19400 ,0.34000 ,,,,
-1.19000 ,0.30000 ,,,,
-1.18700 ,0.18000 ,,,,
-1.18400 ,0.18000 ,,,,
-1.18100 ,0.10000 ,,,,
-1.17800 ,0.10000 ,,,,
-1.17400 ,0.06000 ,,,,
-1.17100 ,0.06000 ,,,,
-1.16800 ,0.02000 ,,,,
-1.16500 ,0.02000 ,,,,
-1.16200 ,0.02000 ,,,,
-1.15800 ,-0.02000 ,,,,
-1.15500 ,-0.02000 ,,,,
-1.15200 ,-0.02000 ,,,,
-1.14900 ,0.02000 ,,,,
-1.14600 ,0.02000 ,,,,
-1.14200 ,0.06000 ,,,,
-1.13900 ,0.06000 ,,,,
-1.13600 ,0.10000 ,,,,
-1.13300 ,0.10000 ,,,,
-1.13000 ,0.14000 ,,,,
-1.12600 ,0.14000 ,,,,
-1.12300 ,0.18000 ,,,,
-1.12000 ,0.22000 ,,,,
-1.11700 ,0.22000 ,,,,
-1.11400 ,0.22000 ,,,,
-1.11000 ,0.22000 ,,,,
-1.10700 ,0.26000 ,,,,
-1.10400 ,0.26000 ,,,,
-1.10100 ,0.26000 ,,,,
-1.09800 ,0.26000 ,,,,
-1.09400 ,0.26000 ,,,,
-1.09100 ,0.30000 ,,,,
-1.08800 ,0.26000 ,,,,
-1.08500 ,0.22000 ,,,,
-1.08200 ,0.22000 ,,,,
-1.07800 ,0.18000 ,,,,
-1.07500 ,0.18000 ,,,,
-1.07200 ,0.18000 ,,,,
-1.06900 ,0.10000 ,,,,
-1.06600 ,0.10000 ,,,,
-1.06200 ,0.02000 ,,,,
-1.05900 ,0.02000 ,,,,
-1.05600 ,0.02000 ,,,,
-1.05300 ,-0.06000 ,,,,
-1.05000 ,-0.14000 ,,,,
-1.04600 ,-0.14000 ,,,,
-1.04300 ,-0.18000 ,,,,
-1.04000 ,-0.26000 ,,,,
-1.03700 ,-0.26000 ,,,,
-1.03400 ,-0.30000 ,,,,
-1.03000 ,-0.38000 ,,,,
-1.02700 ,-0.42000 ,,,,
-1.02400 ,-0.46000 ,,,,
-1.02100 ,-0.54000 ,,,,
-1.01800 ,-0.54000 ,,,,
-1.01400 ,-0.62000 ,,,,
-1.01100 ,-0.66000 ,,,,
-1.00800 ,-0.70000 ,,,,
-1.00500 ,-0.78000 ,,,,
-1.00200 ,-0.82000 ,,,,
-0.99840 ,-0.86000 ,,,,
-0.99520 ,-0.90000 ,,,,
-0.99200 ,-0.94000 ,,,,
-0.98880 ,-0.98000 ,,,,
-0.98560 ,-1.06000 ,,,,
-0.98240 ,-1.10000 ,,,,
-0.97920 ,-1.10000 ,,,,
-0.97600 ,-1.10000 ,,,,
-0.97280 ,-1.14000 ,,,,
-0.96960 ,-1.18000 ,,,,
-0.96640 ,-1.22000 ,,,,
-0.96320 ,-1.26000 ,,,,
-0.96000 ,-1.30000 ,,,,
-0.95680 ,-1.34000 ,,,,
-0.95360 ,-1.38000 ,,,,
-0.95040 ,-1.38000 ,,,,
-0.94720 ,-1.42000 ,,,,
-0.94400 ,-1.42000 ,,,,
-0.94080 ,-1.50000 ,,,,
-0.93760 ,-1.50000 ,,,,
-0.93440 ,-1.50000 ,,,,
-0.93120 ,-1.50000 ,,,,
-0.92800 ,-1.54000 ,,,,
-0.92480 ,-1.58000 ,,,,
-0.92160 ,-1.58000 ,,,,
-0.91840 ,-1.62000 ,,,,
-0.91520 ,-1.62000 ,,,,
-0.91200 ,-1.62000 ,,,,
-0.90880 ,-1.66000 ,,,,
-0.90560 ,-1.66000 ,,,,
-0.90240 ,-1.70000 ,,,,
-0.89920 ,-1.74000 ,,,,
-0.89600 ,-1.74000 ,,,,
-0.89280 ,-1.78000 ,,,,
-0.88960 ,-1.78000 ,,,,
-0.88640 ,-1.78000 ,,,,
-0.88320 ,-1.82000 ,,,,
-0.88000 ,-1.82000 ,,,,
-0.87680 ,-1.86000 ,,,,
-0.87360 ,-1.82000 ,,,,
-0.87040 ,-1.90000 ,,,,
-0.86720 ,-1.86000 ,,,,
-0.86400 ,-1.90000 ,,,,
-0.86080 ,-1.90000 ,,,,
-0.85760 ,-1.94000 ,,,,
-0.85440 ,-1.90000 ,,,,
-0.85120 ,-1.94000 ,,,,
-0.84800 ,-1.94000 ,,,,
-0.84480 ,-1.94000 ,,,,
-0.84160 ,-1.98000 ,,,,
-0.83840 ,-1.98000 ,,,,
-0.83520 ,-1.98000 ,,,,
-0.83200 ,-1.98000 ,,,,
-0.82880 ,-1.98000 ,,,,
-0.82560 ,-2.02000 ,,,,
-0.82240 ,-2.02000 ,,,,
-0.81920 ,-2.02000 ,,,,
-0.81600 ,-2.02000 ,,,,
-0.81280 ,-2.06000 ,,,,
-0.80960 ,-2.06000 ,,,,
-0.80640 ,-2.06000 ,,,,
-0.80320 ,-2.06000 ,,,,
-0.80000 ,-2.10000 ,,,,
-0.79680 ,-2.10000 ,,,,
-0.79360 ,-2.10000 ,,,,
-0.79040 ,-2.10000 ,,,,
-0.78720 ,-2.10000 ,,,,
-0.78400 ,-2.10000 ,,,,
-0.78080 ,-2.14000 ,,,,
-0.77760 ,-2.14000 ,,,,
-0.77440 ,-2.14000 ,,,,
-0.77120 ,-2.14000 ,,,,
-0.76800 ,-2.18000 ,,,,
-0.76480 ,-2.18000 ,,,,
-0.76160 ,-2.18000 ,,,,
-0.75840 ,-2.18000 ,,,,
-0.75520 ,-2.22000 ,,,,
-0.75200 ,-2.22000 ,,,,
-0.74880 ,-2.26000 ,,,,
-0.74560 ,-2.30000 ,,,,
-0.74240 ,-2.30000 ,,,,
-0.73920 ,-2.34000 ,,,,
-0.73600 ,-2.34000 ,,,,
-0.73280 ,-2.38000 ,,,,
-0.72960 ,-2.38000 ,,,,
-0.72640 ,-2.46000 ,,,,
-0.72320 ,-2.42000 ,,,,
-0.72000 ,-2.46000 ,,,,
-0.71680 ,-2.46000 ,,,,
-0.71360 ,-2.54000 ,,,,
-0.71040 ,-2.66000 ,,,,
-0.70720 ,-2.66000 ,,,,
-0.70400 ,-2.58000 ,,,,
-0.70080 ,-2.50000 ,,,,
-0.69760 ,-2.54000 ,,,,
-0.69440 ,-2.58000 ,,,,
-0.69120 ,-2.62000 ,,,,
-0.68800 ,-2.54000 ,,,,
-0.68480 ,-2.42000 ,,,,
-0.68160 ,-2.26000 ,,,,
-0.67840 ,-2.14000 ,,,,
-0.67520 ,-2.10000 ,,,,
-0.67200 ,-1.98000 ,,,,
-0.66880 ,-1.66000 ,,,,
-0.66560 ,-1.34000 ,,,,
-0.66240 ,-1.06000 ,,,,
-0.65920 ,-0.86000 ,,,,
-0.65600 ,-0.62000 ,,,,
-0.65280 ,-0.26000 ,,,,
-0.64960 ,0.14000 ,,,,
-0.64640 ,0.46000 ,,,,
-0.64320 ,0.70000 ,,,,
-0.64000 ,0.98000 ,,,,
-0.63680 ,1.22000 ,,,,
-0.63360 ,1.58000 ,,,,
-0.63040 ,1.82000 ,,,,
-0.62720 ,1.98000 ,,,,
-0.62400 ,2.14000 ,,,,
-0.62080 ,2.34000 ,,,,
-0.61760 ,2.54000 ,,,,
-0.61440 ,2.66000 ,,,,
-0.61120 ,2.74000 ,,,,
-0.60800 ,2.82000 ,,,,
-0.60480 ,2.86000 ,,,,
-0.60160 ,2.94000 ,,,,
-0.59840 ,3.02000 ,,,,
-0.59520 ,2.98000 ,,,,
-0.59200 ,2.98000 ,,,,
-0.58880 ,2.94000 ,,,,
-0.58560 ,2.94000 ,,,,
-0.58240 ,2.94000 ,,,,
-0.57920 ,2.90000 ,,,,
-0.57600 ,2.82000 ,,,,
-0.57280 ,2.74000 ,,,,
-0.56960 ,2.66000 ,,,,
-0.56640 ,2.62000 ,,,,
-0.56320 ,2.58000 ,,,,
-0.56000 ,2.50000 ,,,,
-0.55680 ,2.34000 ,,,,
-0.55360 ,2.30000 ,,,,
-0.55040 ,2.26000 ,,,,
-0.54720 ,2.18000 ,,,,
-0.54400 ,2.10000 ,,,,
-0.54080 ,2.02000 ,,,,
-0.53760 ,1.90000 ,,,,
-0.53440 ,1.86000 ,,,,
-0.53120 ,1.82000 ,,,,
-0.52800 ,1.74000 ,,,,
-0.52480 ,1.70000 ,,,,
-0.52160 ,1.62000 ,,,,
-0.51840 ,1.58000 ,,,,
-0.51520 ,1.58000 ,,,,
-0.51200 ,1.54000 ,,,,
-0.50880 ,1.50000 ,,,,
-0.50560 ,1.46000 ,,,,
-0.50240 ,1.42000 ,,,,
-0.49920 ,1.42000 ,,,,
-0.49600 ,1.42000 ,,,,
-0.49280 ,1.38000 ,,,,
-0.48960 ,1.38000 ,,,,
-0.48640 ,1.38000 ,,,,
-0.48320 ,1.38000 ,,,,
-0.48000 ,1.38000 ,,,,
-0.47680 ,1.38000 ,,,,
-0.47360 ,1.34000 ,,,,
-0.47040 ,1.34000 ,,,,
-0.46720 ,1.38000 ,,,,
-0.46400 ,1.34000 ,,,,
-0.46080 ,1.34000 ,,,,
-0.45760 ,1.34000 ,,,,
-0.45440 ,1.34000 ,,,,
-0.45120 ,1.34000 ,,,,
-0.44800 ,1.34000 ,,,,
-0.44480 ,1.26000 ,,,,
-0.44160 ,1.30000 ,,,,
-0.43840 ,1.22000 ,,,,
-0.43520 ,1.22000 ,,,,
-0.43200 ,1.18000 ,,,,
-0.42880 ,1.14000 ,,,,
-0.42560 ,1.10000 ,,,,
-0.42240 ,1.02000 ,,,,
-0.41920 ,0.98000 ,,,,
-0.41600 ,0.94000 ,,,,
-0.41280 ,0.86000 ,,,,
-0.40960 ,0.78000 ,,,,
-0.40640 ,0.74000 ,,,,
-0.40320 ,0.66000 ,,,,
-0.40000 ,0.58000 ,,,,
-0.39680 ,0.50000 ,,,,
-0.39360 ,0.46000 ,,,,
-0.39040 ,0.42000 ,,,,
-0.38720 ,0.34000 ,,,,
-0.38400 ,0.26000 ,,,,
-0.38080 ,0.26000 ,,,,
-0.37760 ,0.18000 ,,,,
-0.37440 ,0.18000 ,,,,
-0.37120 ,0.14000 ,,,,
-0.36800 ,0.10000 ,,,,
-0.36480 ,0.06000 ,,,,
-0.36160 ,0.06000 ,,,,
-0.35840 ,0.02000 ,,,,
-0.35520 ,0.02000 ,,,,
-0.35200 ,-0.02000 ,,,,
-0.34880 ,0.02000 ,,,,
-0.34560 ,0.02000 ,,,,
-0.34240 ,0.02000 ,,,,
-0.33920 ,0.02000 ,,,,
-0.33600 ,0.06000 ,,,,
-0.33280 ,0.06000 ,,,,
-0.32960 ,0.06000 ,,,,
-0.32640 ,0.10000 ,,,,
-0.32320 ,0.10000 ,,,,
-0.32000 ,0.10000 ,,,,
-0.31680 ,0.14000 ,,,,
-0.31360 ,0.14000 ,,,,
-0.31040 ,0.18000 ,,,,
-0.30720 ,0.14000 ,,,,
-0.30400 ,0.18000 ,,,,
-0.30080 ,0.18000 ,,,,
-0.29760 ,0.18000 ,,,,
-0.29440 ,0.18000 ,,,,
-0.29120 ,0.18000 ,,,,
-0.28800 ,0.18000 ,,,,
-0.28480 ,0.14000 ,,,,
-0.28160 ,0.14000 ,,,,
-0.27840 ,0.10000 ,,,,
-0.27520 ,0.10000 ,,,,
-0.27200 ,0.06000 ,,,,
-0.26880 ,0.06000 ,,,,
-0.26560 ,0.02000 ,,,,
-0.26240 ,-0.02000 ,,,,
-0.25920 ,-0.02000 ,,,,
-0.25600 ,-0.10000 ,,,,
-0.25280 ,-0.14000 ,,,,
-0.24960 ,-0.14000 ,,,,
-0.24640 ,-0.18000 ,,,,
-0.24320 ,-0.26000 ,,,,
-0.24000 ,-0.30000 ,,,,
-0.23680 ,-0.30000 ,,,,
-0.23360 ,-0.38000 ,,,,
-0.23040 ,-0.46000 ,,,,
-0.22720 ,-0.46000 ,,,,
-0.22400 ,-0.54000 ,,,,
-0.22080 ,-0.58000 ,,,,
-0.21760 ,-0.62000 ,,,,
-0.21440 ,-0.66000 ,,,,
-0.21120 ,-0.74000 ,,,,
-0.20800 ,-0.74000 ,,,,
-0.20480 ,-0.82000 ,,,,
-0.20160 ,-0.90000 ,,,,
-0.19840 ,-0.90000 ,,,,
-0.19520 ,-0.98000 ,,,,
-0.19200 ,-0.98000 ,,,,
-0.18880 ,-1.06000 ,,,,
-0.18560 ,-1.10000 ,,,,
-0.18240 ,-1.14000 ,,,,
-0.17920 ,-1.18000 ,,,,
-0.17600 ,-1.18000 ,,,,
-0.17280 ,-1.26000 ,,,,
-0.16960 ,-1.30000 ,,,,
-0.16640 ,-1.34000 ,,,,
-0.16320 ,-1.34000 ,,,,
-0.16000 ,-1.38000 ,,,,
-0.15680 ,-1.38000 ,,,,
-0.15360 ,-1.46000 ,,,,
-0.15040 ,-1.46000 ,,,,
-0.14720 ,-1.50000 ,,,,
-0.14400 ,-1.50000 ,,,,
-0.14080 ,-1.54000 ,,,,
-0.13760 ,-1.58000 ,,,,
-0.13440 ,-1.66000 ,,,,
-0.13120 ,-1.66000 ,,,,
-0.12800 ,-1.66000 ,,,,
-0.12480 ,-1.70000 ,,,,
-0.12160 ,-1.70000 ,,,,
-0.11840 ,-1.74000 ,,,,
-0.11520 ,-1.74000 ,,,,
-0.11200 ,-1.82000 ,,,,
-0.10880 ,-1.82000 ,,,,
-0.10560 ,-1.82000 ,,,,
-0.10240 ,-1.82000 ,,,,
-0.09920 ,-1.82000 ,,,,
-0.09600 ,-1.90000 ,,,,
-0.09280 ,-1.90000 ,,,,
-0.08960 ,-1.90000 ,,,,
-0.08640 ,-1.90000 ,,,,
-0.08320 ,-1.94000 ,,,,
-0.08000 ,-1.94000 ,,,,
-0.07680 ,-1.98000 ,,,,
-0.07360 ,-1.98000 ,,,,
-0.07040 ,-1.98000 ,,,,
-0.06720 ,-1.98000 ,,,,
-0.06400 ,-1.98000 ,,,,
-0.06080 ,-2.02000 ,,,,
-0.05760 ,-2.02000 ,,,,
-0.05440 ,-2.02000 ,,,,
-0.05120 ,-2.06000 ,,,,
-0.04800 ,-2.06000 ,,,,
-0.04480 ,-2.06000 ,,,,
-0.04160 ,-2.06000 ,,,,
-0.03840 ,-2.10000 ,,,,
-0.03520 ,-2.10000 ,,,,
-0.03200 ,-2.10000 ,,,,
-0.02880 ,-2.10000 ,,,,
-0.02560 ,-2.10000 ,,,,
-0.02240 ,-2.14000 ,,,,
-0.01920 ,-2.18000 ,,,,
-0.01600 ,-2.14000 ,,,,
-0.01280 ,-2.18000 ,,,,
-0.00960 ,-2.18000 ,,,,
-0.00640 ,-2.18000 ,,,,
-0.00320 ,-2.18000 ,,,,
0.00000 ,-2.18000 ,,,,
0.00320 ,-2.22000 ,,,,
0.00640 ,-2.22000 ,,,,
0.00960 ,-2.22000 ,,,,
0.01280 ,-2.22000 ,,,,
0.01600 ,-2.22000 ,,,,
0.01920 ,-2.26000 ,,,,
0.02240 ,-2.26000 ,,,,
0.02560 ,-2.26000 ,,,,
0.02880 ,-2.30000 ,,,,
0.03200 ,-2.30000 ,,,,
0.03520 ,-2.30000 ,,,,
0.03840 ,-2.30000 ,,,,
0.04160 ,-2.34000 ,,,,
0.04480 ,-2.34000 ,,,,
0.04800 ,-2.34000 ,,,,
0.05120 ,-2.34000 ,,,,
0.05440 ,-2.38000 ,,,,
0.05760 ,-2.38000 ,,,,
0.06080 ,-2.38000 ,,,,
0.06400 ,-2.42000 ,,,,
0.06720 ,-2.42000 ,,,,
0.07040 ,-2.50000 ,,,,
0.07360 ,-2.58000 ,,,,
0.07680 ,-2.62000 ,,,,
0.08000 ,-2.58000 ,,,,
0.08320 ,-2.46000 ,,,,
0.08640 ,-2.50000 ,,,,
0.08960 ,-2.54000 ,,,,
0.09280 ,-2.66000 ,,,,
0.09600 ,-2.70000 ,,,,
0.09920 ,-2.70000 ,,,,
0.10240 ,-2.62000 ,,,,
0.10560 ,-2.62000 ,,,,
0.10880 ,-2.66000 ,,,,
0.11200 ,-2.78000 ,,,,
0.11520 ,-2.82000 ,,,,
0.11840 ,-2.78000 ,,,,
0.12160 ,-2.66000 ,,,,
0.12480 ,-2.62000 ,,,,
0.12800 ,-2.66000 ,,,,
0.13120 ,-2.70000 ,,,,
0.13440 ,-2.66000 ,,,,
0.13760 ,-2.46000 ,,,,
0.14080 ,-2.26000 ,,,,
0.14400 ,-2.10000 ,,,,
0.14720 ,-1.98000 ,,,,
0.15040 ,-1.78000 ,,,,
0.15360 ,-1.54000 ,,,,
0.15680 ,-1.18000 ,,,,
0.16000 ,-0.90000 ,,,,
0.16320 ,-0.66000 ,,,,
0.16640 ,-0.38000 ,,,,
0.16960 ,-0.06000 ,,,,
0.17280 ,0.34000 ,,,,
0.17600 ,0.62000 ,,,,
0.17920 ,0.90000 ,,,,
0.18240 ,1.14000 ,,,,
0.18560 ,1.42000 ,,,,
0.18880 ,1.70000 ,,,,
0.19200 ,1.94000 ,,,,
0.19520 ,2.10000 ,,,,
0.19840 ,2.22000 ,,,,
0.20160 ,2.42000 ,,,,
0.20480 ,2.58000 ,,,,
0.20800 ,2.66000 ,,,,
0.21120 ,2.78000 ,,,,
0.21440 ,2.82000 ,,,,
0.21760 ,2.82000 ,,,,
0.22080 ,2.86000 ,,,,
0.22400 ,2.90000 ,,,,
0.22720 ,2.90000 ,,,,
0.23040 ,2.86000 ,,,,
0.23360 ,2.86000 ,,,,
0.23680 ,2.82000 ,,,,
0.24000 ,2.78000 ,,,,
0.24320 ,2.74000 ,,,,
0.24640 ,2.66000 ,,,,
0.24960 ,2.62000 ,,,,
0.25280 ,2.50000 ,,,,
0.25600 ,2.46000 ,,,,
0.25920 ,2.38000 ,,,,
0.26240 ,2.34000 ,,,,
0.26560 ,2.26000 ,,,,
0.26880 ,2.14000 ,,,,
0.27200 ,2.10000 ,,,,
0.27520 ,2.02000 ,,,,
0.27840 ,1.94000 ,,,,
0.28160 ,1.86000 ,,,,
0.28480 ,1.78000 ,,,,
0.28800 ,1.78000 ,,,,
0.29120 ,1.70000 ,,,,
0.29440 ,1.66000 ,,,,
0.29760 ,1.58000 ,,,,
0.30080 ,1.54000 ,,,,
0.30400 ,1.46000 ,,,,
0.30720 ,1.46000 ,,,,
0.31040 ,1.42000 ,,,,
0.31360 ,1.38000 ,,,,
0.31680 ,1.38000 ,,,,
0.32000 ,1.34000 ,,,,
0.32320 ,1.34000 ,,,,
0.32640 ,1.30000 ,,,,
0.32960 ,1.30000 ,,,,
0.33280 ,1.26000 ,,,,
0.33600 ,1.26000 ,,,,
0.33920 ,1.30000 ,,,,
0.34240 ,1.26000 ,,,,
0.34560 ,1.26000 ,,,,
0.34880 ,1.22000 ,,,,
0.35200 ,1.22000 ,,,,
0.35520 ,1.26000 ,,,,
0.35840 ,1.22000 ,,,,
0.36160 ,1.22000 ,,,,
0.36480 ,1.22000 ,,,,
0.36800 ,1.18000 ,,,,
0.37120 ,1.18000 ,,,,
0.37440 ,1.18000 ,,,,
0.37760 ,1.14000 ,,,,
0.38080 ,1.10000 ,,,,
0.38400 ,1.10000 ,,,,
0.38720 ,1.02000 ,,,,
0.39040 ,0.98000 ,,,,
0.39360 ,0.94000 ,,,,
0.39680 ,0.90000 ,,,,
0.40000 ,0.86000 ,,,,
0.40320 ,0.82000 ,,,,
0.40640 ,0.70000 ,,,,
0.40960 ,0.66000 ,,,,
0.41280 ,0.62000 ,,,,
0.41600 ,0.58000 ,,,,
0.41920 ,0.46000 ,,,,
0.42240 ,0.42000 ,,,,
0.42560 ,0.38000 ,,,,
0.42880 ,0.30000 ,,,,
0.43200 ,0.26000 ,,,,
0.43520 ,0.22000 ,,,,
0.43840 ,0.18000 ,,,,
0.44160 ,0.14000 ,,,,
0.44480 ,0.10000 ,,,,
0.44800 ,0.06000 ,,,,
0.45120 ,0.06000 ,,,,
0.45440 ,0.02000 ,,,,
0.45760 ,0.02000 ,,,,
0.46080 ,-0.02000 ,,,,
0.46400 ,-0.02000 ,,,,
0.46720 ,-0.02000 ,,,,
0.47040 ,0.02000 ,,,,
0.47360 ,-0.02000 ,,,,
0.47680 ,0.02000 ,,,,
0.48000 ,0.02000 ,,,,
0.48320 ,0.02000 ,,,,
0.48640 ,0.06000 ,,,,
0.48960 ,0.10000 ,,,,
0.49280 ,0.06000 ,,,,
0.49600 ,0.10000 ,,,,
0.49920 ,0.10000 ,,,,
0.50240 ,0.14000 ,,,,
0.50560 ,0.14000 ,,,,
0.50880 ,0.14000 ,,,,
0.51200 ,0.18000 ,,,,
0.51520 ,0.14000 ,,,,
0.51840 ,0.14000 ,,,,
0.52160 ,0.14000 ,,,,
0.52480 ,0.14000 ,,,,
0.52800 ,0.14000 ,,,,
0.53120 ,0.18000 ,,,,
0.53440 ,0.14000 ,,,,
0.53760 ,0.14000 ,,,,
0.54080 ,0.14000 ,,,,
0.54400 ,0.10000 ,,,,
0.54720 ,0.10000 ,,,,
0.55040 ,0.06000 ,,,,
0.55360 ,0.02000 ,,,,
0.55680 ,-0.02000 ,,,,
0.56000 ,-0.02000 ,,,,
0.56320 ,-0.06000 ,,,,
0.56640 ,-0.10000 ,,,,
0.56960 ,-0.10000 ,,,,
0.57280 ,-0.14000 ,,,,
0.57600 ,-0.18000 ,,,,
0.57920 ,-0.26000 ,,,,
0.58240 ,-0.30000 ,,,,
0.58560 ,-0.30000 ,,,,
0.58880 ,-0.34000 ,,,,
0.59200 ,-0.42000 ,,,,
0.59520 ,-0.42000 ,,,,
0.59840 ,-0.46000 ,,,,
0.60160 ,-0.54000 ,,,,
0.60480 ,-0.54000 ,,,,
0.60800 ,-0.62000 ,,,,
0.61120 ,-0.62000 ,,,,
0.61440 ,-0.66000 ,,,,
0.61760 ,-0.70000 ,,,,
0.62080 ,-0.78000 ,,,,
0.62400 ,-0.82000 ,,,,
0.62720 ,-0.86000 ,,,,
0.63040 ,-0.90000 ,,,,
0.63360 ,-0.94000 ,,,,
0.63680 ,-0.98000 ,,,,
0.64000 ,-1.02000 ,,,,
0.64320 ,-1.02000 ,,,,
0.64640 ,-1.06000 ,,,,
0.64960 ,-1.06000 ,,,,
0.65280 ,-1.14000 ,,,,
0.65600 ,-1.14000 ,,,,
0.65920 ,-1.14000 ,,,,
0.66240 ,-1.18000 ,,,,
0.66560 ,-1.22000 ,,,,
0.66880 ,-1.22000 ,,,,
0.67200 ,-1.26000 ,,,,
0.67520 ,-1.26000 ,,,,
0.67840 ,-1.26000 ,,,,
0.68160 ,-1.34000 ,,,,
0.68480 ,-1.34000 ,,,,
0.68800 ,-1.34000 ,,,,
0.69120 ,-1.38000 ,,,,
0.69440 ,-1.38000 ,,,,
0.69760 ,-1.42000 ,,,,
0.70080 ,-1.46000 ,,,,
0.70400 ,-1.46000 ,,,,
0.70720 ,-1.50000 ,,,,
0.71040 ,-1.54000 ,,,,
0.71360 ,-1.50000 ,,,,
0.71680 ,-1.54000 ,,,,
0.72000 ,-1.54000 ,,,,
0.72320 ,-1.54000 ,,,,
0.72640 ,-1.58000 ,,,,
0.72960 ,-1.58000 ,,,,
0.73280 ,-1.58000 ,,,,
0.73600 ,-1.62000 ,,,,
0.73920 ,-1.66000 ,,,,
0.74240 ,-1.66000 ,,,,
0.74560 ,-1.66000 ,,,,
0.74880 ,-1.70000 ,,,,
0.75200 ,-1.70000 ,,,,
0.75520 ,-1.70000 ,,,,
0.75840 ,-1.70000 ,,,,
0.76160 ,-1.74000 ,,,,
0.76480 ,-1.74000 ,,,,
0.76800 ,-1.74000 ,,,,
0.77120 ,-1.78000 ,,,,
0.77440 ,-1.78000 ,,,,
0.77760 ,-1.78000 ,,,,
0.78080 ,-1.78000 ,,,,
0.78400 ,-1.82000 ,,,,
0.78720 ,-1.78000 ,,,,
0.79040 ,-1.78000 ,,,,
0.79360 ,-1.78000 ,,,,
0.79680 ,-1.82000 ,,,,
0.80000 ,-1.82000 ,,,,
0.80320 ,-1.86000 ,,,,
0.80640 ,-1.86000 ,,,,
0.80960 ,-1.86000 ,,,,
0.81280 ,-1.82000 ,,,,
0.81600 ,-1.82000 ,,,,
0.81920 ,-1.86000 ,,,,
0.82240 ,-1.86000 ,,,,
0.82560 ,-1.86000 ,,,,
0.82880 ,-1.90000 ,,,,
0.83200 ,-1.86000 ,,,,
0.83520 ,-1.90000 ,,,,
0.83840 ,-1.90000 ,,,,
0.84160 ,-1.90000 ,,,,
0.84480 ,-1.90000 ,,,,
0.84800 ,-1.90000 ,,,,
0.85120 ,-1.90000 ,,,,
0.85440 ,-1.90000 ,,,,
0.85760 ,-1.94000 ,,,,
0.86080 ,-1.94000 ,,,,
0.86400 ,-1.94000 ,,,,
0.86720 ,-1.94000 ,,,,
0.87040 ,-1.98000 ,,,,
0.87360 ,-1.98000 ,,,,
0.87680 ,-1.98000 ,,,,
0.88000 ,-2.02000 ,,,,
0.88320 ,-2.02000 ,,,,
0.88640 ,-2.06000 ,,,,
0.88960 ,-2.06000 ,,,,
0.89280 ,-2.06000 ,,,,
0.89600 ,-2.10000 ,,,,
0.89920 ,-2.10000 ,,,,
0.90240 ,-2.14000 ,,,,
0.90560 ,-2.14000 ,,,,
0.90880 ,-2.14000 ,,,,
0.91200 ,-2.18000 ,,,,
0.91520 ,-2.18000 ,,,,
0.91840 ,-2.18000 ,,,,
0.92160 ,-2.26000 ,,,,
0.92480 ,-2.26000 ,,,,
0.92800 ,-2.26000 ,,,,
0.93120 ,-2.22000 ,,,,
0.93440 ,-2.18000 ,,,,
0.93760 ,-2.14000 ,,,,
0.94080 ,-2.10000 ,,,,
0.94400 ,-2.02000 ,,,,
0.94720 ,-1.94000 ,,,,
0.95040 ,-1.78000 ,,,,
0.95360 ,-1.62000 ,,,,
0.95680 ,-1.42000 ,,,,
0.96000 ,-1.22000 ,,,,
0.96320 ,-0.94000 ,,,,
0.96640 ,-0.66000 ,,,,
0.96960 ,-0.38000 ,,,,
0.97280 ,-0.10000 ,,,,
0.97600 ,0.22000 ,,,,
0.97920 ,0.58000 ,,,,
0.98240 ,0.86000 ,,,,
0.98560 ,1.18000 ,,,,
0.98880 ,1.46000 ,,,,
0.99200 ,1.74000 ,,,,
0.99520 ,1.98000 ,,,,
0.99840 ,2.18000 ,,,,
1.00200 ,2.38000 ,,,,
1.00500 ,2.58000 ,,,,
1.00800 ,2.74000 ,,,,
1.01100 ,2.90000 ,,,,
1.01400 ,2.98000 ,,,,
1.01800 ,3.06000 ,,,,
1.02100 ,3.14000 ,,,,
1.02400 ,3.14000 ,,,,
1.02700 ,3.18000 ,,,,
1.03000 ,3.22000 ,,,,
1.03400 ,3.22000 ,,,,
1.03700 ,3.22000 ,,,,
1.04000 ,3.18000 ,,,,
1.04300 ,3.14000 ,,,,
1.04600 ,3.10000 ,,,,
1.05000 ,3.06000 ,,,,
1.05300 ,2.98000 ,,,,
1.05600 ,2.90000 ,,,,
1.05900 ,2.82000 ,,,,
1.06200 ,2.74000 ,,,,
1.06600 ,2.70000 ,,,,
1.06900 ,2.62000 ,,,,
1.07200 ,2.54000 ,,,,
1.07500 ,2.42000 ,,,,
1.07800 ,2.34000 ,,,,
1.08200 ,2.26000 ,,,,
1.08500 ,2.18000 ,,,,
1.08800 ,2.10000 ,,,,
1.09100 ,2.02000 ,,,,
1.09400 ,1.98000 ,,,,
1.09800 ,1.90000 ,,,,
1.10100 ,1.86000 ,,,,
1.10400 ,1.78000 ,,,,
1.10700 ,1.74000 ,,,,
1.11000 ,1.66000 ,,,,
1.11400 ,1.66000 ,,,,
1.11700 ,1.62000 ,,,,
1.12000 ,1.58000 ,,,,
1.12300 ,1.54000 ,,,,
1.12600 ,1.50000 ,,,,
1.13000 ,1.50000 ,,,,
1.13300 ,1.46000 ,,,,
1.13600 ,1.46000 ,,,,
1.13900 ,1.46000 ,,,,
1.14200 ,1.42000 ,,,,
1.14600 ,1.42000 ,,,,
1.14900 ,1.42000 ,,,,
1.15200 ,1.42000 ,,,,
1.15500 ,1.42000 ,,,,
1.15800 ,1.42000 ,,,,
1.16200 ,1.38000 ,,,,
1.16500 ,1.38000 ,,,,
1.16800 ,1.38000 ,,,,
1.17100 ,1.38000 ,,,,
1.17400 ,1.34000 ,,,,
1.17800 ,1.30000 ,,,,
1.18100 ,1.26000 ,,,,
1.18400 ,1.26000 ,,,,
1.18700 ,1.22000 ,,,,
1.19000 ,1.18000 ,,,,
1.19400 ,1.10000 ,,,,
1.19700 ,1.06000 ,,,,
1.20000 ,1.02000 ,,,,
1.20300 ,0.94000 ,,,,
1.20600 ,0.86000 ,,,,
1.21000 ,0.82000 ,,,,
1.21300 ,0.74000 ,,,,
1.21600 ,0.66000 ,,,,
1.21900 ,0.62000 ,,,,
1.22200 ,0.58000 ,,,,
1.22600 ,0.50000 ,,,,
1.22900 ,0.42000 ,,,,
1.23200 ,0.38000 ,,,,
1.23500 ,0.34000 ,,,,
1.23800 ,0.30000 ,,,,
1.24200 ,0.26000 ,,,,
1.24500 ,0.26000 ,,,,
1.24800 ,0.22000 ,,,,
1.25100 ,0.18000 ,,,,
1.25400 ,0.18000 ,,,,
1.25800 ,0.18000 ,,,,
1.26100 ,0.18000 ,,,,
1.26400 ,0.14000 ,,,,
1.26700 ,0.18000 ,,,,
1.27000 ,0.22000 ,,,,
1.27400 ,0.22000 ,,,,
1.27700 ,0.22000 ,,,,
1.28000 ,0.22000 ,,,,
1.28300 ,0.26000 ,,,,
1.28600 ,0.30000 ,,,,
1.29000 ,0.30000 ,,,,
1.29300 ,0.34000 ,,,,
1.29600 ,0.38000 ,,,,
1.29900 ,0.42000 ,,,,
1.30200 ,0.42000 ,,,,
1.30600 ,0.46000 ,,,,
1.30900 ,0.46000 ,,,,
1.31200 ,0.46000 ,,,,
1.31500 ,0.50000 ,,,,
1.31800 ,0.46000 ,,,,
1.32200 ,0.50000 ,,,,
1.32500 ,0.50000 ,,,,
1.32800 ,0.54000 ,,,,
1.33100 ,0.54000 ,,,,
1.33400 ,0.50000 ,,,,
1.33800 ,0.46000 ,,,,
1.34100 ,0.46000 ,,,,
1.34400 ,0.46000 ,,,,
1.34700 ,0.46000 ,,,,
1.35000 ,0.42000 ,,,,
1.35400 ,0.38000 ,,,,
1.35700 ,0.34000 ,,,,
1.36000 ,0.34000 ,,,,
1.36300 ,0.30000 ,,,,
1.36600 ,0.26000 ,,,,
1.37000 ,0.22000 ,,,,
1.37300 ,0.14000 ,,,,
1.37600 ,0.10000 ,,,,
1.37900 ,0.10000 ,,,,
1.38200 ,0.06000 ,,,,
1.38600 ,-0.02000 ,,,,
1.38900 ,-0.06000 ,,,,
1.39200 ,-0.10000 ,,,,
1.39500 ,-0.14000 ,,,,
1.39800 ,-0.22000 ,,,,
1.40200 ,-0.26000 ,,,,
1.40500 ,-0.30000 ,,,,
1.40800 ,-0.34000 ,,,,
1.41100 ,-0.34000 ,,,,
1.41400 ,-0.46000 ,,,,
1.41800 ,-0.46000 ,,,,
1.42100 ,-0.50000 ,,,,
1.42400 ,-0.58000 ,,,,
1.42700 ,-0.62000 ,,,,
1.43000 ,-0.66000 ,,,,
1.43400 ,-0.70000 ,,,,
1.43700 ,-0.74000 ,,,,
1.44000 ,-0.78000 ,,,,
1.44300 ,-0.78000 ,,,,
1.44600 ,-0.86000 ,,,,
1.45000 ,-0.90000 ,,,,
1.45300 ,-0.90000 ,,,,
1.45600 ,-0.98000 ,,,,
1.45900 ,-1.02000 ,,,,
1.46200 ,-1.06000 ,,,,
1.46600 ,-1.06000 ,,,,
1.46900 ,-1.10000 ,,,,
1.47200 ,-1.10000 ,,,,
1.47500 ,-1.14000 ,,,,
1.47800 ,-1.18000 ,,,,
1.48200 ,-1.18000 ,,,,
1.48500 ,-1.26000 ,,,,
1.48800 ,-1.26000 ,,,,
1.49100 ,-1.26000 ,,,,
1.49400 ,-1.30000 ,,,,
1.49800 ,-1.34000 ,,,,
1.50100 ,-1.34000 ,,,,
1.50400 ,-1.38000 ,,,,
1.50700 ,-1.38000 ,,,,
1.51000 ,-1.42000 ,,,,
1.51400 ,-1.42000 ,,,,
1.51700 ,-1.46000 ,,,,
1.52000 ,-1.46000 ,,,,
1.52300 ,-1.46000 ,,,,
1.52600 ,-1.50000 ,,,,
1.53000 ,-1.54000 ,,,,
1.53300 ,-1.50000 ,,,,
1.53600 ,-1.50000 ,,,,
1.53900 ,-1.54000 ,,,,
1.54200 ,-1.54000 ,,,,
1.54600 ,-1.54000 ,,,,
1.54900 ,-1.58000 ,,,,
1.55200 ,-1.58000 ,,,,
1.55500 ,-1.62000 ,,,,
1.55800 ,-1.58000 ,,,,
1.56200 ,-1.58000 ,,,,
1.56500 ,-1.58000 ,,,,
1.56800 ,-1.58000 ,,,,
1.57100 ,-1.58000 ,,,,
1.57400 ,-1.62000 ,,,,
1.57800 ,-1.62000 ,,,,
1.58100 ,-1.62000 ,,,,
1.58400 ,-1.62000 ,,,,
1.58700 ,-1.62000 ,,,,
1.59000 ,-1.62000 ,,,,
1.59400 ,-1.66000 ,,,,
1.59700 ,-1.66000 ,,,,
1.60000 ,-1.66000 ,,,,
1.60300 ,-1.62000 ,,,,
1.60600 ,-1.62000 ,,,,
1.61000 ,-1.66000 ,,,,
1.61300 ,-1.62000 ,,,,
1.61600 ,-1.66000 ,,,,
1.61900 ,-1.66000 ,,,,
1.62200 ,-1.66000 ,,,,
1.62600 ,-1.66000 ,,,,
1.62900 ,-1.74000 ,,,,
1.63200 ,-1.70000 ,,,,
1.63500 ,-1.70000 ,,,,
1.63800 ,-1.74000 ,,,,
1.64200 ,-1.74000 ,,,,
1.64500 ,-1.74000 ,,,,
1.64800 ,-1.78000 ,,,,
1.65100 ,-1.78000 ,,,,
1.65400 ,-1.78000 ,,,,
1.65800 ,-1.86000 ,,,,
1.66100 ,-1.86000 ,,,,
1.66400 ,-1.86000 ,,,,
1.66700 ,-1.86000 ,,,,
1.67000 ,-1.86000 ,,,,
1.67400 ,-1.90000 ,,,,
1.67700 ,-1.90000 ,,,,
1.68000 ,-1.86000 ,,,,
1.68300 ,-1.82000 ,,,,
1.68600 ,-1.78000 ,,,,
1.69000 ,-1.74000 ,,,,
1.69300 ,-1.66000 ,,,,
1.69600 ,-1.54000 ,,,,
1.69900 ,-1.42000 ,,,,
1.70200 ,-1.22000 ,,,,
1.70600 ,-1.06000 ,,,,
1.70900 ,-0.86000 ,,,,
1.71200 ,-0.58000 ,,,,
1.71500 ,-0.34000 ,,,,
1.71800 ,-0.06000 ,,,,
1.72200 ,0.18000 ,,,,
1.72500 ,0.46000 ,,,,
1.72800 ,0.74000 ,,,,
1.73100 ,1.02000 ,,,,
1.73400 ,1.26000 ,,,,
1.73800 ,1.50000 ,,,,
1.74100 ,1.74000 ,,,,
1.74400 ,1.94000 ,,,,
1.74700 ,2.14000 ,,,,
1.75000 ,2.26000 ,,,,
1.75400 ,2.42000 ,,,,
1.75700 ,2.58000 ,,,,
1.76000 ,2.66000 ,,,,
1.76300 ,2.74000 ,,,,
1.76600 ,2.82000 ,,,,
1.77000 ,2.86000 ,,,,
1.77300 ,2.90000 ,,,,
1.77600 ,2.94000 ,,,,
1.77900 ,2.90000 ,,,,
1.78200 ,2.90000 ,,,,
1.78600 ,2.86000 ,,,,
1.78900 ,2.86000 ,,,,
1.79200 ,2.78000 ,,,,
1.79500 ,2.74000 ,,,,
1.79800 ,2.70000 ,,,,
1.80200 ,2.62000 ,,,,
1.80500 ,2.58000 ,,,,
1.80800 ,2.50000 ,,,,
1.81100 ,2.46000 ,,,,
1.81400 ,2.34000 ,,,,
1.81800 ,2.26000 ,,,,
1.82100 ,2.14000 ,,,,
1.82400 ,2.10000 ,,,,
1.82700 ,1.98000 ,,,,
1.83000 ,1.94000 ,,,,
1.83400 ,1.82000 ,,,,
1.83700 ,1.74000 ,,,,
1.84000 ,1.70000 ,,,,
1.84300 ,1.62000 ,,,,
1.84600 ,1.54000 ,,,,
1.85000 ,1.50000 ,,,,
1.85300 ,1.42000 ,,,,
1.85600 ,1.38000 ,,,,
1.85900 ,1.34000 ,,,,
1.86200 ,1.30000 ,,,,
1.86600 ,1.26000 ,,,,
1.86900 ,1.18000 ,,,,
1.87200 ,1.18000 ,,,,
1.87500 ,1.14000 ,,,,
1.87800 ,1.10000 ,,,,
1.88200 ,1.06000 ,,,,
1.88500 ,1.02000 ,,,,
1.88800 ,1.06000 ,,,,
1.89100 ,1.02000 ,,,,
1.89400 ,1.02000 ,,,,
1.89800 ,1.02000 ,,,,
1.90100 ,0.98000 ,,,,
1.90400 ,0.98000 ,,,,
1.90700 ,0.94000 ,,,,
1.91000 ,0.90000 ,,,,
1.91400 ,0.94000 ,,,,
1.91700 ,0.90000 ,,,,
1.92000 ,0.86000 ,,,,
1.92300 ,0.82000 ,,,,
1.92600 ,0.78000 ,,,,
1.93000 ,0.74000 ,,,,
1.93300 ,0.66000 ,,,,
1.93600 ,0.66000 ,,,,
1.93900 ,0.62000 ,,,,
1.94200 ,0.54000 ,,,,
1.94600 ,0.46000 ,,,,
1.94900 ,0.38000 ,,,,
1.95200 ,0.34000 ,,,,
1.95500 ,0.26000 ,,,,
1.95800 ,0.18000 ,,,,
1.96200 ,0.14000 ,,,,
1.96500 ,0.10000 ,,,,
1.96800 ,0.06000 ,,,,
1.97100 ,0.02000 ,,,,
1.97400 ,-0.06000 ,,,,
1.97800 ,-0.06000 ,,,,
1.98100 ,-0.10000 ,,,,
1.98400 ,-0.14000 ,,,,
1.98700 ,-0.14000 ,,,,
1.99000 ,-0.14000 ,,,,
1.99400 ,-0.14000 ,,,,
1.99700 ,-0.18000 ,,,,
2.00000 ,-0.18000 ,,,,
2.00300 ,-0.14000 ,,,,
2.00600 ,-0.14000 ,,,,
2.01000 ,-0.14000 ,,,,
2.01300 ,-0.10000 ,,,,
2.01600 ,-0.10000 ,,,,
2.01900 ,-0.06000 ,,,,
2.02200 ,-0.02000 ,,,,
2.02600 ,-0.02000 ,,,,
2.02900 ,0.02000 ,,,,
2.03200 ,0.02000 ,,,,
2.03500 ,0.06000 ,,,,
2.03800 ,0.10000 ,,,,
2.04200 ,0.10000 ,,,,
2.04500 ,0.10000 ,,,,
2.04800 ,0.14000 ,,,,
2.05100 ,0.14000 ,,,,
2.05400 ,0.22000 ,,,,
2.05800 ,0.18000 ,,,,
2.06100 ,0.22000 ,,,,
2.06400 ,0.22000 ,,,,
2.06700 ,0.22000 ,,,,
2.07000 ,0.22000 ,,,,
2.07400 ,0.18000 ,,,,
2.07700 ,0.18000 ,,,,
2.08000 ,0.18000 ,,,,
2.08300 ,0.18000 ,,,,
2.08600 ,0.14000 ,,,,
2.09000 ,0.14000 ,,,,
2.09300 ,0.06000 ,,,,
2.09600 ,0.06000 ,,,,
2.09900 ,0.02000 ,,,,
2.10200 ,-0.02000 ,,,,
2.10600 ,-0.02000 ,,,,
2.10900 ,-0.10000 ,,,,
2.11200 ,-0.10000 ,,,,
2.11500 ,-0.18000 ,,,,
2.11800 ,-0.22000 ,,,,
2.12200 ,-0.26000 ,,,,
2.12500 ,-0.30000 ,,,,
2.12800 ,-0.34000 ,,,,
2.13100 ,-0.38000 ,,,,
2.13400 ,-0.46000 ,,,,
2.13800 ,-0.46000 ,,,,
2.14100 ,-0.54000 ,,,,
2.14400 ,-0.58000 ,,,,
2.14700 ,-0.66000 ,,,,
2.15000 ,-0.70000 ,,,,
2.15400 ,-0.74000 ,,,,
2.15700 ,-0.78000 ,,,,
2.16000 ,-0.82000 ,,,,
2.16300 ,-0.90000 ,,,,
2.16600 ,-0.94000 ,,,,
2.17000 ,-0.94000 ,,,,
2.17300 ,-1.02000 ,,,,
2.17600 ,-1.06000 ,,,,
2.17900 ,-1.10000 ,,,,
2.18200 ,-1.14000 ,,,,
2.18600 ,-1.18000 ,,,,
2.18900 ,-1.22000 ,,,,
2.19200 ,-1.26000 ,,,,
2.19500 ,-1.30000 ,,,,
2.19800 ,-1.34000 ,,,,
2.20200 ,-1.34000 ,,,,
2.20500 ,-1.38000 ,,,,
2.20800 ,-1.42000 ,,,,
2.21100 ,-1.46000 ,,,,
2.21400 ,-1.46000 ,,,,
2.21800 ,-1.50000 ,,,,
2.22100 ,-1.58000 ,,,,
2.22400 ,-1.58000 ,,,,
2.22700 ,-1.62000 ,,,,
2.23000 ,-1.62000 ,,,,
2.23400 ,-1.62000 ,,,,
2.23700 ,-1.70000 ,,,,
2.24000 ,-1.70000 ,,,,
2.24300 ,-1.70000 ,,,,
2.24600 ,-1.74000 ,,,,
2.25000 ,-1.78000 ,,,,
2.25300 ,-1.78000 ,,,,
2.25600 ,-1.78000 ,,,,
2.25900 ,-1.82000 ,,,,
2.26200 ,-1.82000 ,,,,
2.26600 ,-1.86000 ,,,,
2.26900 ,-1.86000 ,,,,
2.27200 ,-1.90000 ,,,,
2.27500 ,-1.90000 ,,,,
2.27800 ,-1.94000 ,,,,
2.28200 ,-1.94000 ,,,,
2.28500 ,-1.90000 ,,,,
2.28800 ,-1.98000 ,,,,
2.29100 ,-1.94000 ,,,,
2.29400 ,-1.98000 ,,,,
2.29800 ,-1.98000 ,,,,
2.30100 ,-1.98000 ,,,,
2.30400 ,-1.98000 ,,,,
2.30700 ,-1.98000 ,,,,
2.31000 ,-1.98000 ,,,,
2.31400 ,-1.98000 ,,,,
2.31700 ,-1.98000 ,,,,
2.32000 ,-1.98000 ,,,,
2.32300 ,-2.02000 ,,,,
2.32600 ,-2.02000 ,,,,
2.33000 ,-2.02000 ,,,,
2.33300 ,-2.02000 ,,,,
2.33600 ,-2.06000 ,,,,
2.33900 ,-2.06000 ,,,,
2.34200 ,-2.06000 ,,,,
2.34600 ,-2.10000 ,,,,
2.34900 ,-2.06000 ,,,,
2.35200 ,-2.10000 ,,,,
2.35500 ,-2.10000 ,,,,
2.35800 ,-2.10000 ,,,,
2.36200 ,-2.14000 ,,,,
2.36500 ,-2.14000 ,,,,
2.36800 ,-2.14000 ,,,,
2.37100 ,-2.18000 ,,,,
2.37400 ,-2.18000 ,,,,
2.37800 ,-2.18000 ,,,,
2.38100 ,-2.22000 ,,,,
2.38400 ,-2.22000 ,,,,
2.38700 ,-2.22000 ,,,,
2.39000 ,-2.22000 ,,,,
2.39400 ,-2.26000 ,,,,
2.39700 ,-2.26000 ,,,,
2.40000 ,-2.22000 ,,,,
2.40300 ,-2.22000 ,,,,
2.40600 ,-2.18000 ,,,,
2.41000 ,-2.14000 ,,,,
2.41300 ,-2.06000 ,,,,
2.41600 ,-1.94000 ,,,,
2.41900 ,-1.78000 ,,,,
2.42200 ,-1.66000 ,,,,
2.42600 ,-1.50000 ,,,,
2.42900 ,-1.26000 ,,,,
2.43200 ,-1.06000 ,,,,
2.43500 ,-0.82000 ,,,,
2.43800 ,-0.54000 ,,,,
2.44200 ,-0.26000 ,,,,
2.44500 ,-0.02000 ,,,,
2.44800 ,0.30000 ,,,,
2.45100 ,0.54000 ,,,,
2.45400 ,0.82000 ,,,,
2.45800 ,1.06000 ,,,,
2.46100 ,1.30000 ,,,,
2.46400 ,1.54000 ,,,,
2.46700 ,1.70000 ,,,,
2.47000 ,1.90000 ,,,,
2.47400 ,2.06000 ,,,,
2.47700 ,2.22000 ,,,,
2.48000 ,2.30000 ,,,,
2.48300 ,2.42000 ,,,,
2.48600 ,2.50000 ,,,,
2.49000 ,2.58000 ,,,,
2.49300 ,2.62000 ,,,,
2.49600 ,2.66000 ,,,,
2.49900 ,2.66000 ,,,,
2.50200 ,2.70000 ,,,,
2.50600 ,2.70000 ,,,,
2.50900 ,2.66000 ,,,,
2.51200 ,2.62000 ,,,,
2.51500 ,2.58000 ,,,,
2.51800 ,2.54000 ,,,,
2.52200 ,2.50000 ,,,,
2.52500 ,2.42000 ,,,,
2.52800 ,2.38000 ,,,,
2.53100 ,2.34000 ,,,,
2.53400 ,2.22000 ,,,,
2.53800 ,2.18000 ,,,,
2.54100 ,2.02000 ,,,,
2.54400 ,1.98000 ,,,,
2.54700 ,1.94000 ,,,,
2.55000 ,1.86000 ,,,,
2.55400 ,1.78000 ,,,,
2.55700 ,1.70000 ,,,,
2.56000 ,1.66000 ,,,,
2.56300 ,1.58000 ,,,,
2.56600 ,1.50000 ,,,,
2.57000 ,1.46000 ,,,,
2.57300 ,1.38000 ,,,,
2.57600 ,1.38000 ,,,,
2.57900 ,1.30000 ,,,,
2.58200 ,1.26000 ,,,,
2.58600 ,1.22000 ,,,,
2.58900 ,1.18000 ,,,,
2.59200 ,1.18000 ,,,,
2.59500 ,1.14000 ,,,,
2.59800 ,1.14000 ,,,,
2.60200 ,1.14000 ,,,,
2.60500 ,1.14000 ,,,,
2.60800 ,1.10000 ,,,,
2.61100 ,1.14000 ,,,,
2.61400 ,1.10000 ,,,,
2.61800 ,1.10000 ,,,,
2.62100 ,1.10000 ,,,,
2.62400 ,1.10000 ,,,,
2.62700 ,1.10000 ,,,,
2.63000 ,1.10000 ,,,,
2.63400 ,1.14000 ,,,,
2.63700 ,1.10000 ,,,,
2.64000 ,1.10000 ,,,,
2.64300 ,1.10000 ,,,,
2.64600 ,1.10000 ,,,,
2.65000 ,1.10000 ,,,,
2.65300 ,1.10000 ,,,,
2.65600 ,1.06000 ,,,,
2.65900 ,1.06000 ,,,,
2.66200 ,1.02000 ,,,,
2.66600 ,0.98000 ,,,,
2.66900 ,0.94000 ,,,,
2.67200 ,0.94000 ,,,,
2.67500 ,0.90000 ,,,,
2.67800 ,0.86000 ,,,,
2.68200 ,0.78000 ,,,,
2.68500 ,0.74000 ,,,,
2.68800 ,0.66000 ,,,,
2.69100 ,0.62000 ,,,,
2.69400 ,0.58000 ,,,,
2.69800 ,0.54000 ,,,,
2.70100 ,0.50000 ,,,,
2.70400 ,0.46000 ,,,,
2.70700 ,0.38000 ,,,,
2.71000 ,0.34000 ,,,,
2.71400 ,0.30000 ,,,,
2.71700 ,0.30000 ,,,,
2.72000 ,0.26000 ,,,,
2.72300 ,0.22000 ,,,,
2.72600 ,0.18000 ,,,,
2.73000 ,0.18000 ,,,,
2.73300 ,0.18000 ,,,,
2.73600 ,0.14000 ,,,,
2.73900 ,0.14000 ,,,,
2.74200 ,0.10000 ,,,,
2.74600 ,0.14000 ,,,,
2.74900 ,0.14000 ,,,,
2.75200 ,0.14000 ,,,,
2.75500 ,0.14000 ,,,,
2.75800 ,0.18000 ,,,,
2.76200 ,0.14000 ,,,,
2.76500 ,0.18000 ,,,,
2.76800 ,0.18000 ,,,,
2.77100 ,0.18000 ,,,,
2.77400 ,0.18000 ,,,,
2.77800 ,0.22000 ,,,,
2.78100 ,0.22000 ,,,,
2.78400 ,0.22000 ,,,,
2.78700 ,0.22000 ,,,,
2.79000 ,0.22000 ,,,,
2.79400 ,0.26000 ,,,,
2.79700 ,0.22000 ,,,,
2.80000 ,0.22000 ,,,,
2.80300 ,0.22000 ,,,,
2.80600 ,0.18000 ,,,,
2.81000 ,0.18000 ,,,,
2.81300 ,0.18000 ,,,,
2.81600 ,0.14000 ,,,,
2.81900 ,0.14000 ,,,,
2.82200 ,0.10000 ,,,,
2.82600 ,0.10000 ,,,,
2.82900 ,0.06000 ,,,,
2.83200 ,0.02000 ,,,,
2.83500 ,0.02000 ,,,,
2.83800 ,-0.02000 ,,,,
2.84200 ,-0.06000 ,,,,
2.84500 ,-0.06000 ,,,,
2.84800 ,-0.10000 ,,,,
2.85100 ,-0.18000 ,,,,
2.85400 ,-0.18000 ,,,,
2.85800 ,-0.26000 ,,,,
2.86100 ,-0.26000 ,,,,
2.86400 ,-0.30000 ,,,,
2.86700 ,-0.34000 ,,,,
2.87000 ,-0.38000 ,,,,
2.87400 ,-0.42000 ,,,,
2.87700 ,-0.46000 ,,,,
2.88000 ,-0.50000 ,,,,
2.88300 ,-0.54000 ,,,,
2.88600 ,-0.58000 ,,,,
2.89000 ,-0.62000 ,,,,
2.89300 ,-0.66000 ,,,,
2.89600 ,-0.70000 ,,,,
2.89900 ,-0.74000 ,,,,
2.90200 ,-0.78000 ,,,,
2.90600 ,-0.82000 ,,,,
2.90900 ,-0.86000 ,,,,
2.91200 ,-0.90000 ,,,,
2.91500 ,-0.94000 ,,,,
2.91800 ,-0.94000 ,,,,
2.92200 ,-0.98000 ,,,,
2.92500 ,-1.02000 ,,,,
2.92800 ,-1.06000 ,,,,
2.93100 ,-1.06000 ,,,,
2.93400 ,-1.10000 ,,,,
2.93800 ,-1.10000 ,,,,
2.94100 ,-1.18000 ,,,,
2.94400 ,-1.14000 ,,,,
2.94700 ,-1.22000 ,,,,
2.95000 ,-1.18000 ,,,,
2.95400 ,-1.22000 ,,,,
2.95700 ,-1.26000 ,,,,
2.96000 ,-1.26000 ,,,,
2.96300 ,-1.26000 ,,,,
2.96600 ,-1.30000 ,,,,
2.97000 ,-1.34000 ,,,,
2.97300 ,-1.34000 ,,,,
2.97600 ,-1.34000 ,,,,
2.97900 ,-1.34000 ,,,,
2.98200 ,-1.38000 ,,,,
2.98600 ,-1.38000 ,,,,
2.98900 ,-1.42000 ,,,,
2.99200 ,-1.42000 ,,,,
2.99500 ,-1.42000 ,,,,
2.99800 ,-1.42000 ,,,,
3.00200 ,-1.50000 ,,,,
3.00500 ,-1.46000 ,,,,
3.00800 ,-1.50000 ,,,,
3.01100 ,-1.46000 ,,,,
3.01400 ,-1.50000 ,,,,
3.01800 ,-1.50000 ,,,,
3.02100 ,-1.54000 ,,,,
3.02400 ,-1.50000 ,,,,
3.02700 ,-1.50000 ,,,,
3.03000 ,-1.50000 ,,,,
3.03400 ,-1.54000 ,,,,
3.03700 ,-1.54000 ,,,,
3.04000 ,-1.50000 ,,,,
3.04300 ,-1.50000 ,,,,
3.04600 ,-1.54000 ,,,,
3.05000 ,-1.54000 ,,,,
3.05300 ,-1.54000 ,,,,
3.05600 ,-1.54000 ,,,,
3.05900 ,-1.58000 ,,,,
3.06200 ,-1.54000 ,,,,
3.06600 ,-1.54000 ,,,,
3.06900 ,-1.54000 ,,,,
3.07200 ,-1.54000 ,,,,
3.07500 ,-1.58000 ,,,,
3.07800 ,-1.58000 ,,,,
3.08200 ,-1.62000 ,,,,
3.08500 ,-1.62000 ,,,,
3.08800 ,-1.62000 ,,,,
3.09100 ,-1.62000 ,,,,
3.09400 ,-1.62000 ,,,,
3.09800 ,-1.66000 ,,,,
3.10100 ,-1.70000 ,,,,
3.10400 ,-1.66000 ,,,,
3.10700 ,-1.70000 ,,,,
3.11000 ,-1.70000 ,,,,
3.11400 ,-1.70000 ,,,,
3.11700 ,-1.74000 ,,,,
3.12000 ,-1.74000 ,,,,
3.12300 ,-1.78000 ,,,,
3.12600 ,-1.78000 ,,,,
3.13000 ,-1.82000 ,,,,
3.13300 ,-1.82000 ,,,,
3.13600 ,-1.86000 ,,,,
3.13900 ,-1.86000 ,,,,
3.14200 ,-1.90000 ,,,,
3.14600 ,-1.90000 ,,,,
3.14900 ,-1.86000 ,,,,
3.15200 ,-1.82000 ,,,,
3.15500 ,-1.82000 ,,,,
3.15800 ,-1.78000 ,,,,
3.16200 ,-1.70000 ,,,,
3.16500 ,-1.62000 ,,,,
3.16800 ,-1.50000 ,,,,
3.17100 ,-1.38000 ,,,,
3.17400 ,-1.22000 ,,,,
3.17800 ,-1.02000 ,,,,
3.18100 ,-0.82000 ,,,,
3.18400 ,-0.54000 ,,,,
3.18700 ,-0.30000 ,,,,
3.19000 ,4.14000 ,,,,
3.19400 ,-3.70000 ,,,,
3.19700 ,4.18000 ,,,,
