TIME,CH1,SBP,DBP,Model,TBS1102C
-3.2000 ,0.9400 ,110,51,Firmware Version,v2015-08-04-prequal4ch70_v1.3
-3.1970 ,0.8600 ,,,,
-3.1940 ,0.7800 ,,,Point Format,Y
-3.1900 ,0.7000 ,,,Horizontal Units,S
-3.1870 ,0.6600 ,,,Horizontal Scale,0.4
-3.1840 ,0.5800 ,,,Sample Interval,0.0032
-3.1810 ,0.5400 ,,,Filter Frequency,2.00E+08
-3.1780 ,0.5000 ,,,Record Length,2000
-3.1740 ,0.4200 ,,,Gating,0.0% to 100.0%
-3.1710 ,0.3800 ,,,Probe Attenuation,10
-3.1680 ,0.3400 ,,,Vertical Units,V
-3.1650 ,0.2600 ,,,Vertical Offset,0
-3.1620 ,0.2200 ,,,Vertical Scale,1
-3.1580 ,0.2200 ,,,Label,
-3.1550 ,0.1400 ,,,,
-3.1520 ,0.1000 ,,,,
-3.1490 ,0.0600 ,,,,
-3.1460 ,0.0200 ,,,,
-3.1420 ,-0.0200 ,,,,
-3.1390 ,-0.0600 ,,,,
-3.1360 ,-0.1000 ,,,,
-3.1330 ,-0.1000 ,,,,
-3.1300 ,-0.1400 ,,,,
-3.1260 ,-0.1800 ,,,,
-3.1230 ,-0.2600 ,,,,
-3.1200 ,-0.2600 ,,,,
-3.1170 ,-0.2600 ,,,,
-3.1140 ,-0.3000 ,,,,
-3.1100 ,-0.3400 ,,,,
-3.1070 ,-0.3400 ,,,,
-3.1040 ,-0.3400 ,,,,
-3.1010 ,-0.4200 ,,,,
-3.0980 ,-0.4200 ,,,,
-3.0940 ,-0.4200 ,,,,
-3.0910 ,-0.4600 ,,,,
-3.0880 ,-0.4200 ,,,,
-3.0850 ,-0.4600 ,,,,
-3.0820 ,-0.4600 ,,,,
-3.0780 ,-0.4200 ,,,,
-3.0750 ,-0.4600 ,,,,
-3.0720 ,-0.4200 ,,,,
-3.0690 ,-0.4200 ,,,,
-3.0660 ,-0.4200 ,,,,
-3.0620 ,-0.3800 ,,,,
-3.0590 ,-0.3800 ,,,,
-3.0560 ,-0.3800 ,,,,
-3.0530 ,-0.3400 ,,,,
-3.0500 ,-0.3000 ,,,,
-3.0460 ,-0.3000 ,,,,
-3.0430 ,-0.2600 ,,,,
-3.0400 ,-0.2200 ,,,,
-3.0370 ,-0.2200 ,,,,
-3.0340 ,-0.2200 ,,,,
-3.0300 ,-0.1400 ,,,,
-3.0270 ,-0.1400 ,,,,
-3.0240 ,-0.1000 ,,,,
-3.0210 ,-0.1000 ,,,,
-3.0180 ,-0.0600 ,,,,
-3.0140 ,-0.0200 ,,,,
-3.0110 ,-0.0200 ,,,,
-3.0080 ,-0.0200 ,,,,
-3.0050 ,0.0600 ,,,,
-3.0020 ,0.0200 ,,,,
-2.9980 ,0.0600 ,,,,
-2.9950 ,0.0600 ,,,,
-2.9920 ,0.1000 ,,,,
-2.9890 ,0.1000 ,,,,
-2.9860 ,0.1000 ,,,,
-2.9820 ,0.1000 ,,,,
-2.9790 ,0.1000 ,,,,
-2.9760 ,0.1000 ,,,,
-2.9730 ,0.1000 ,,,,
-2.9700 ,0.1000 ,,,,
-2.9660 ,0.0600 ,,,,
-2.9630 ,0.0600 ,,,,
-2.9600 ,0.0200 ,,,,
-2.9570 ,-0.0200 ,,,,
-2.9540 ,0.0200 ,,,,
-2.9500 ,-0.0600 ,,,,
-2.9470 ,-0.0600 ,,,,
-2.9440 ,-0.1000 ,,,,
-2.9410 ,-0.1000 ,,,,
-2.9380 ,-0.1400 ,,,,
-2.9340 ,-0.1800 ,,,,
-2.9310 ,-0.2200 ,,,,
-2.9280 ,-0.2600 ,,,,
-2.9250 ,-0.2600 ,,,,
-2.9220 ,-0.3000 ,,,,
-2.9180 ,-0.3400 ,,,,
-2.9150 ,-0.3400 ,,,,
-2.9120 ,-0.3800 ,,,,
-2.9090 ,-0.4200 ,,,,
-2.9060 ,-0.4600 ,,,,
-2.9020 ,-0.5000 ,,,,
-2.8990 ,-0.5000 ,,,,
-2.8960 ,-0.5800 ,,,,
-2.8930 ,-0.6200 ,,,,
-2.8900 ,-0.6200 ,,,,
-2.8860 ,-0.7000 ,,,,
-2.8830 ,-0.7000 ,,,,
-2.8800 ,-0.7800 ,,,,
-2.8770 ,-0.8200 ,,,,
-2.8740 ,-0.8600 ,,,,
-2.8700 ,-0.9000 ,,,,
-2.8670 ,-0.9400 ,,,,
-2.8640 ,-0.9400 ,,,,
-2.8610 ,-1.0200 ,,,,
-2.8580 ,-1.0200 ,,,,
-2.8540 ,-1.0600 ,,,,
-2.8510 ,-1.0600 ,,,,
-2.8480 ,-1.1000 ,,,,
-2.8450 ,-1.1400 ,,,,
-2.8420 ,-1.1400 ,,,,
-2.8380 ,-1.1400 ,,,,
-2.8350 ,-1.1800 ,,,,
-2.8320 ,-1.1800 ,,,,
-2.8290 ,-1.2200 ,,,,
-2.8260 ,-1.2200 ,,,,
-2.8220 ,-1.2600 ,,,,
-2.8190 ,-1.3000 ,,,,
-2.8160 ,-1.3000 ,,,,
-2.8130 ,-1.3400 ,,,,
-2.8100 ,-1.3400 ,,,,
-2.8060 ,-1.3800 ,,,,
-2.8030 ,-1.3800 ,,,,
-2.8000 ,-1.4600 ,,,,
-2.7970 ,-1.4600 ,,,,
-2.7940 ,-1.4600 ,,,,
-2.7900 ,-1.5000 ,,,,
-2.7870 ,-1.5000 ,,,,
-2.7840 ,-1.5400 ,,,,
-2.7810 ,-1.5400 ,,,,
-2.7780 ,-1.5800 ,,,,
-2.7740 ,-1.5800 ,,,,
-2.7710 ,-1.6200 ,,,,
-2.7680 ,-1.5800 ,,,,
-2.7650 ,-1.6200 ,,,,
-2.7620 ,-1.6200 ,,,,
-2.7580 ,-1.6200 ,,,,
-2.7550 ,-1.5800 ,,,,
-2.7520 ,-1.6200 ,,,,
-2.7490 ,-1.6200 ,,,,
-2.7460 ,-1.6200 ,,,,
-2.7420 ,-1.5800 ,,,,
-2.7390 ,-1.5800 ,,,,
-2.7360 ,-1.6200 ,,,,
-2.7330 ,-1.6200 ,,,,
-2.7300 ,-1.5800 ,,,,
-2.7260 ,-1.6200 ,,,,
-2.7230 ,-1.5800 ,,,,
-2.7200 ,-1.5800 ,,,,
-2.7170 ,-1.6200 ,,,,
-2.7140 ,-1.6200 ,,,,
-2.7100 ,-1.6200 ,,,,
-2.7070 ,-1.6200 ,,,,
-2.7040 ,-1.5800 ,,,,
-2.7010 ,-1.6200 ,,,,
-2.6980 ,-1.6200 ,,,,
-2.6940 ,-1.6200 ,,,,
-2.6910 ,-1.6200 ,,,,
-2.6880 ,-1.6600 ,,,,
-2.6850 ,-1.6200 ,,,,
-2.6820 ,-1.6600 ,,,,
-2.6780 ,-1.6200 ,,,,
-2.6750 ,-1.6200 ,,,,
-2.6720 ,-1.6200 ,,,,
-2.6690 ,-1.6200 ,,,,
-2.6660 ,-1.6200 ,,,,
-2.6620 ,-1.6200 ,,,,
-2.6590 ,-1.5800 ,,,,
-2.6560 ,-1.6200 ,,,,
-2.6530 ,-1.5800 ,,,,
-2.6500 ,-1.5800 ,,,,
-2.6460 ,-1.5800 ,,,,
-2.6430 ,-1.5800 ,,,,
-2.6400 ,-1.5400 ,,,,
-2.6370 ,-1.5800 ,,,,
-2.6340 ,-1.5400 ,,,,
-2.6300 ,-1.5800 ,,,,
-2.6270 ,-1.5400 ,,,,
-2.6240 ,-1.5400 ,,,,
-2.6210 ,-1.5400 ,,,,
-2.6180 ,-1.5400 ,,,,
-2.6140 ,-1.5400 ,,,,
-2.6110 ,-1.5400 ,,,,
-2.6080 ,-1.5800 ,,,,
-2.6050 ,-1.5800 ,,,,
-2.6020 ,-1.5400 ,,,,
-2.5980 ,-1.5400 ,,,,
-2.5950 ,-1.5400 ,,,,
-2.5920 ,-1.5800 ,,,,
-2.5890 ,-1.5400 ,,,,
-2.5860 ,-1.5800 ,,,,
-2.5820 ,-1.5400 ,,,,
-2.5790 ,-1.5800 ,,,,
-2.5760 ,-1.5400 ,,,,
-2.5730 ,-1.5400 ,,,,
-2.5700 ,-1.5400 ,,,,
-2.5660 ,-1.5800 ,,,,
-2.5630 ,-1.5800 ,,,,
-2.5600 ,-1.6200 ,,,,
-2.5570 ,-1.5800 ,,,,
-2.5540 ,-1.6200 ,,,,
-2.5500 ,-1.5800 ,,,,
-2.5470 ,-1.6200 ,,,,
-2.5440 ,-1.6200 ,,,,
-2.5410 ,-1.6200 ,,,,
-2.5380 ,-1.6200 ,,,,
-2.5340 ,-1.6600 ,,,,
-2.5310 ,-1.6600 ,,,,
-2.5280 ,-1.6600 ,,,,
-2.5250 ,-1.6600 ,,,,
-2.5220 ,-1.7000 ,,,,
-2.5180 ,-1.7000 ,,,,
-2.5150 ,-1.7000 ,,,,
-2.5120 ,-1.7400 ,,,,
-2.5090 ,-1.7400 ,,,,
-2.5060 ,-1.7400 ,,,,
-2.5020 ,-1.7000 ,,,,
-2.4990 ,-1.7400 ,,,,
-2.4960 ,-1.7800 ,,,,
-2.4930 ,-1.7400 ,,,,
-2.4900 ,-1.7800 ,,,,
-2.4860 ,-1.7800 ,,,,
-2.4830 ,-1.7800 ,,,,
-2.4800 ,-1.8200 ,,,,
-2.4770 ,-1.8200 ,,,,
-2.4740 ,-1.7800 ,,,,
-2.4700 ,-1.8200 ,,,,
-2.4670 ,-1.8200 ,,,,
-2.4640 ,-1.8600 ,,,,
-2.4610 ,-1.8600 ,,,,
-2.4580 ,-1.9000 ,,,,
-2.4540 ,-1.9000 ,,,,
-2.4510 ,-1.9000 ,,,,
-2.4480 ,-1.9400 ,,,,
-2.4450 ,-1.9400 ,,,,
-2.4420 ,-1.9400 ,,,,
-2.4380 ,-1.9800 ,,,,
-2.4350 ,-1.9800 ,,,,
-2.4320 ,-2.0200 ,,,,
-2.4290 ,-2.0200 ,,,,
-2.4260 ,-2.0600 ,,,,
-2.4220 ,-2.0200 ,,,,
-2.4190 ,-2.0200 ,,,,
-2.4160 ,-2.0600 ,,,,
-2.4130 ,-2.0200 ,,,,
-2.4100 ,-2.0600 ,,,,
-2.4060 ,-2.0200 ,,,,
-2.4030 ,-2.0200 ,,,,
-2.4000 ,-1.9800 ,,,,
-2.3970 ,-1.9000 ,,,,
-2.3940 ,-1.8600 ,,,,
-2.3900 ,-1.7000 ,,,,
-2.3870 ,-1.5800 ,,,,
-2.3840 ,-1.4600 ,,,,
-2.3810 ,-1.3000 ,,,,
-2.3780 ,-1.1400 ,,,,
-2.3740 ,-0.9000 ,,,,
-2.3710 ,-0.6600 ,,,,
-2.3680 ,-0.4200 ,,,,
-2.3650 ,-0.1800 ,,,,
-2.3620 ,0.0600 ,,,,
-2.3580 ,0.3400 ,,,,
-2.3550 ,0.5800 ,,,,
-2.3520 ,0.8200 ,,,,
-2.3490 ,1.0600 ,,,,
-2.3460 ,1.3400 ,,,,
-2.3420 ,1.5000 ,,,,
-2.3390 ,1.7400 ,,,,
-2.3360 ,1.9000 ,,,,
-2.3330 ,2.0600 ,,,,
-2.3300 ,2.1800 ,,,,
-2.3260 ,2.3000 ,,,,
-2.3230 ,2.4200 ,,,,
-2.3200 ,2.5000 ,,,,
-2.3170 ,2.5800 ,,,,
-2.3140 ,2.6200 ,,,,
-2.3100 ,2.7000 ,,,,
-2.3070 ,2.6600 ,,,,
-2.3040 ,2.7000 ,,,,
-2.3010 ,2.7400 ,,,,
-2.2980 ,2.7000 ,,,,
-2.2940 ,2.7000 ,,,,
-2.2910 ,2.6600 ,,,,
-2.2880 ,2.6200 ,,,,
-2.2850 ,2.5800 ,,,,
-2.2820 ,2.5400 ,,,,
-2.2780 ,2.5000 ,,,,
-2.2750 ,2.4600 ,,,,
-2.2720 ,2.3800 ,,,,
-2.2690 ,2.3000 ,,,,
-2.2660 ,2.2600 ,,,,
-2.2620 ,2.1800 ,,,,
-2.2590 ,2.0600 ,,,,
-2.2560 ,2.0200 ,,,,
-2.2530 ,1.9400 ,,,,
-2.2500 ,1.8600 ,,,,
-2.2460 ,1.7800 ,,,,
-2.2430 ,1.7000 ,,,,
-2.2400 ,1.6200 ,,,,
-2.2370 ,1.5400 ,,,,
-2.2340 ,1.4600 ,,,,
-2.2300 ,1.3800 ,,,,
-2.2270 ,1.3000 ,,,,
-2.2240 ,1.2200 ,,,,
-2.2210 ,1.1000 ,,,,
-2.2180 ,1.0200 ,,,,
-2.2140 ,0.9800 ,,,,
-2.2110 ,0.9000 ,,,,
-2.2080 ,0.8200 ,,,,
-2.2050 ,0.7400 ,,,,
-2.2020 ,0.7400 ,,,,
-2.1980 ,0.6600 ,,,,
-2.1950 ,0.5800 ,,,,
-2.1920 ,0.5400 ,,,,
-2.1890 ,0.5000 ,,,,
-2.1860 ,0.4200 ,,,,
-2.1820 ,0.3800 ,,,,
-2.1790 ,0.3400 ,,,,
-2.1760 ,0.3400 ,,,,
-2.1730 ,0.2600 ,,,,
-2.1700 ,0.2200 ,,,,
-2.1660 ,0.1800 ,,,,
-2.1630 ,0.1400 ,,,,
-2.1600 ,0.1000 ,,,,
-2.1570 ,0.1000 ,,,,
-2.1540 ,0.0600 ,,,,
-2.1500 ,0.0200 ,,,,
-2.1470 ,-0.0200 ,,,,
-2.1440 ,-0.0200 ,,,,
-2.1410 ,-0.0600 ,,,,
-2.1380 ,-0.1000 ,,,,
-2.1340 ,-0.1000 ,,,,
-2.1310 ,-0.1400 ,,,,
-2.1280 ,-0.1400 ,,,,
-2.1250 ,-0.1800 ,,,,
-2.1220 ,-0.1800 ,,,,
-2.1180 ,-0.1800 ,,,,
-2.1150 ,-0.1800 ,,,,
-2.1120 ,-0.1800 ,,,,
-2.1090 ,-0.2200 ,,,,
-2.1060 ,-0.1800 ,,,,
-2.1020 ,-0.1800 ,,,,
-2.0990 ,-0.1800 ,,,,
-2.0960 ,-0.1400 ,,,,
-2.0930 ,-0.1400 ,,,,
-2.0900 ,-0.1000 ,,,,
-2.0860 ,-0.1000 ,,,,
-2.0830 ,-0.0600 ,,,,
-2.0800 ,-0.0200 ,,,,
-2.0770 ,-0.0200 ,,,,
-2.0740 ,0.0200 ,,,,
-2.0700 ,0.0600 ,,,,
-2.0670 ,0.1000 ,,,,
-2.0640 ,0.1400 ,,,,
-2.0610 ,0.1800 ,,,,
-2.0580 ,0.2200 ,,,,
-2.0540 ,0.2600 ,,,,
-2.0510 ,0.2600 ,,,,
-2.0480 ,0.3000 ,,,,
-2.0450 ,0.3400 ,,,,
-2.0420 ,0.3800 ,,,,
-2.0380 ,0.4200 ,,,,
-2.0350 ,0.4200 ,,,,
-2.0320 ,0.4600 ,,,,
-2.0290 ,0.4600 ,,,,
-2.0260 ,0.5000 ,,,,
-2.0220 ,0.5400 ,,,,
-2.0190 ,0.5400 ,,,,
-2.0160 ,0.5800 ,,,,
-2.0130 ,0.5800 ,,,,
-2.0100 ,0.5800 ,,,,
-2.0060 ,0.6200 ,,,,
-2.0030 ,0.6200 ,,,,
-2.0000 ,0.6200 ,,,,
-1.9970 ,0.6200 ,,,,
-1.9940 ,0.5800 ,,,,
-1.9900 ,0.5800 ,,,,
-1.9870 ,0.6200 ,,,,
-1.9840 ,0.5800 ,,,,
-1.9810 ,0.5400 ,,,,
-1.9780 ,0.5000 ,,,,
-1.9740 ,0.5000 ,,,,
-1.9710 ,0.4600 ,,,,
-1.9680 ,0.4200 ,,,,
-1.9650 ,0.3800 ,,,,
-1.9620 ,0.3800 ,,,,
-1.9580 ,0.3400 ,,,,
-1.9550 ,0.3000 ,,,,
-1.9520 ,0.2600 ,,,,
-1.9490 ,0.2200 ,,,,
-1.9460 ,0.1800 ,,,,
-1.9420 ,0.1400 ,,,,
-1.9390 ,0.1000 ,,,,
-1.9360 ,0.1000 ,,,,
-1.9330 ,-0.0200 ,,,,
-1.9300 ,-0.0200 ,,,,
-1.9260 ,-0.0600 ,,,,
-1.9230 ,-0.1000 ,,,,
-1.9200 ,-0.1400 ,,,,
-1.9170 ,-0.1800 ,,,,
-1.9140 ,-0.2200 ,,,,
-1.9100 ,-0.2600 ,,,,
-1.9070 ,-0.3400 ,,,,
-1.9040 ,-0.3400 ,,,,
-1.9010 ,-0.3400 ,,,,
-1.8980 ,-0.4200 ,,,,
-1.8940 ,-0.4200 ,,,,
-1.8910 ,-0.4600 ,,,,
-1.8880 ,-0.5000 ,,,,
-1.8850 ,-0.5000 ,,,,
-1.8820 ,-0.5400 ,,,,
-1.8780 ,-0.5800 ,,,,
-1.8750 ,-0.6200 ,,,,
-1.8720 ,-0.6200 ,,,,
-1.8690 ,-0.6600 ,,,,
-1.8660 ,-0.6600 ,,,,
-1.8620 ,-0.7000 ,,,,
-1.8590 ,-0.7400 ,,,,
-1.8560 ,-0.7400 ,,,,
-1.8530 ,-0.7400 ,,,,
-1.8500 ,-0.8200 ,,,,
-1.8460 ,-0.8200 ,,,,
-1.8430 ,-0.8600 ,,,,
-1.8400 ,-0.9000 ,,,,
-1.8370 ,-0.9000 ,,,,
-1.8340 ,-0.9400 ,,,,
-1.8300 ,-0.9400 ,,,,
-1.8270 ,-0.9800 ,,,,
-1.8240 ,-0.9800 ,,,,
-1.8210 ,-1.0200 ,,,,
-1.8180 ,-1.0600 ,,,,
-1.8140 ,-1.0600 ,,,,
-1.8110 ,-1.1000 ,,,,
-1.8080 ,-1.0600 ,,,,
-1.8050 ,-1.1000 ,,,,
-1.8020 ,-1.1000 ,,,,
-1.7980 ,-1.1000 ,,,,
-1.7950 ,-1.1000 ,,,,
-1.7920 ,-1.1000 ,,,,
-1.7890 ,-1.1400 ,,,,
-1.7860 ,-1.1400 ,,,,
-1.7820 ,-1.1000 ,,,,
-1.7790 ,-1.1000 ,,,,
-1.7760 ,-1.1000 ,,,,
-1.7730 ,-1.1000 ,,,,
-1.7700 ,-1.1000 ,,,,
-1.7660 ,-1.1000 ,,,,
-1.7630 ,-1.1000 ,,,,
-1.7600 ,-1.0600 ,,,,
-1.7570 ,-1.0600 ,,,,
-1.7540 ,-1.0600 ,,,,
-1.7500 ,-1.0600 ,,,,
-1.7470 ,-1.0200 ,,,,
-1.7440 ,-1.0200 ,,,,
-1.7410 ,-1.0200 ,,,,
-1.7380 ,-1.0200 ,,,,
-1.7340 ,-1.0200 ,,,,
-1.7310 ,-1.0200 ,,,,
-1.7280 ,-1.0200 ,,,,
-1.7250 ,-1.0200 ,,,,
-1.7220 ,-1.0200 ,,,,
-1.7180 ,-1.0200 ,,,,
-1.7150 ,-1.0200 ,,,,
-1.7120 ,-0.9800 ,,,,
-1.7090 ,-1.0200 ,,,,
-1.7060 ,-1.0200 ,,,,
-1.7020 ,-1.0200 ,,,,
-1.6990 ,-1.0200 ,,,,
-1.6960 ,-1.0200 ,,,,
-1.6930 ,-1.0200 ,,,,
-1.6900 ,-1.0200 ,,,,
-1.6860 ,-1.0200 ,,,,
-1.6830 ,-1.0200 ,,,,
-1.6800 ,-1.0200 ,,,,
-1.6770 ,-1.0200 ,,,,
-1.6740 ,-0.9800 ,,,,
-1.6700 ,-0.9800 ,,,,
-1.6670 ,-0.9800 ,,,,
-1.6640 ,-0.9800 ,,,,
-1.6610 ,-0.9800 ,,,,
-1.6580 ,-0.9400 ,,,,
-1.6540 ,-0.9800 ,,,,
-1.6510 ,-0.9400 ,,,,
-1.6480 ,-0.9400 ,,,,
-1.6450 ,-0.9400 ,,,,
-1.6420 ,-0.9000 ,,,,
-1.6380 ,-0.8600 ,,,,
-1.6350 ,-0.9400 ,,,,
-1.6320 ,-0.9000 ,,,,
-1.6290 ,-0.9000 ,,,,
-1.6260 ,-0.9000 ,,,,
-1.6220 ,-0.8600 ,,,,
-1.6190 ,-0.9000 ,,,,
-1.6160 ,-0.9000 ,,,,
-1.6130 ,-0.8600 ,,,,
-1.6100 ,-0.9000 ,,,,
-1.6060 ,-0.9000 ,,,,
-1.6030 ,-0.9400 ,,,,
-1.6000 ,-0.9000 ,,,,
-1.5970 ,-0.9000 ,,,,
-1.5940 ,-0.9400 ,,,,
-1.5900 ,-0.9800 ,,,,
-1.5870 ,-0.9400 ,,,,
-1.5840 ,-0.9800 ,,,,
-1.5810 ,-0.9800 ,,,,
-1.5780 ,-0.9800 ,,,,
-1.5740 ,-1.0200 ,,,,
-1.5710 ,-1.0200 ,,,,
-1.5680 ,-1.0200 ,,,,
-1.5650 ,-1.1000 ,,,,
-1.5620 ,-1.1000 ,,,,
-1.5580 ,-1.1000 ,,,,
-1.5550 ,-1.1400 ,,,,
-1.5520 ,-1.1400 ,,,,
-1.5490 ,-1.1400 ,,,,
-1.5460 ,-1.1800 ,,,,
-1.5420 ,-1.2200 ,,,,
-1.5390 ,-1.2200 ,,,,
-1.5360 ,-1.2200 ,,,,
-1.5330 ,-1.2600 ,,,,
-1.5300 ,-1.2600 ,,,,
-1.5260 ,-1.3000 ,,,,
-1.5230 ,-1.3000 ,,,,
-1.5200 ,-1.3000 ,,,,
-1.5170 ,-1.3400 ,,,,
-1.5140 ,-1.3800 ,,,,
-1.5100 ,-1.3400 ,,,,
-1.5070 ,-1.3800 ,,,,
-1.5040 ,-1.3800 ,,,,
-1.5010 ,-1.3800 ,,,,
-1.4980 ,-1.4200 ,,,,
-1.4940 ,-1.4200 ,,,,
-1.4910 ,-1.4200 ,,,,
-1.4880 ,-1.4200 ,,,,
-1.4850 ,-1.4600 ,,,,
-1.4820 ,-1.5000 ,,,,
-1.4780 ,-1.5000 ,,,,
-1.4750 ,-1.5000 ,,,,
-1.4720 ,-1.5400 ,,,,
-1.4690 ,-1.5400 ,,,,
-1.4660 ,-1.5400 ,,,,
-1.4620 ,-1.5000 ,,,,
-1.4590 ,-1.5000 ,,,,
-1.4560 ,-1.4600 ,,,,
-1.4530 ,-1.3800 ,,,,
-1.4500 ,-1.3000 ,,,,
-1.4460 ,-1.2200 ,,,,
-1.4430 ,-1.1000 ,,,,
-1.4400 ,-1.0200 ,,,,
-1.4370 ,-0.8600 ,,,,
-1.4340 ,-0.6600 ,,,,
-1.4300 ,-0.5000 ,,,,
-1.4270 ,-0.3000 ,,,,
-1.4240 ,-0.1000 ,,,,
-1.4210 ,0.1400 ,,,,
-1.4180 ,0.3400 ,,,,
-1.4140 ,0.5800 ,,,,
-1.4110 ,0.8200 ,,,,
-1.4080 ,1.0600 ,,,,
-1.4050 ,1.2600 ,,,,
-1.4020 ,1.4200 ,,,,
-1.3980 ,1.6200 ,,,,
-1.3950 ,1.7800 ,,,,
-1.3920 ,1.9400 ,,,,
-1.3890 ,2.1000 ,,,,
-1.3860 ,2.2200 ,,,,
-1.3820 ,2.3400 ,,,,
-1.3790 ,2.4600 ,,,,
-1.3760 ,2.5400 ,,,,
-1.3730 ,2.6200 ,,,,
-1.3700 ,2.6600 ,,,,
-1.3660 ,2.7000 ,,,,
-1.3630 ,2.7400 ,,,,
-1.3600 ,2.7400 ,,,,
-1.3570 ,2.7400 ,,,,
-1.3540 ,2.7400 ,,,,
-1.3500 ,2.7000 ,,,,
-1.3470 ,2.6600 ,,,,
-1.3440 ,2.6600 ,,,,
-1.3410 ,2.5800 ,,,,
-1.3380 ,2.5000 ,,,,
-1.3340 ,2.5000 ,,,,
-1.3310 ,2.3800 ,,,,
-1.3280 ,2.3400 ,,,,
-1.3250 ,2.2200 ,,,,
-1.3220 ,2.1400 ,,,,
-1.3180 ,2.0600 ,,,,
-1.3150 ,1.9800 ,,,,
-1.3120 ,1.9000 ,,,,
-1.3090 ,1.8200 ,,,,
-1.3060 ,1.7400 ,,,,
-1.3020 ,1.6200 ,,,,
-1.2990 ,1.5800 ,,,,
-1.2960 ,1.4600 ,,,,
-1.2930 ,1.3800 ,,,,
-1.2900 ,1.3400 ,,,,
-1.2860 ,1.2600 ,,,,
-1.2830 ,1.1800 ,,,,
-1.2800 ,1.1000 ,,,,
-1.2770 ,1.0200 ,,,,
-1.2740 ,0.9400 ,,,,
-1.2700 ,0.8600 ,,,,
-1.2670 ,0.8200 ,,,,
-1.2640 ,0.7400 ,,,,
-1.2610 ,0.7000 ,,,,
-1.2580 ,0.6200 ,,,,
-1.2540 ,0.5400 ,,,,
-1.2510 ,0.5000 ,,,,
-1.2480 ,0.4200 ,,,,
-1.2450 ,0.3800 ,,,,
-1.2420 ,0.3000 ,,,,
-1.2380 ,0.2600 ,,,,
-1.2350 ,0.1800 ,,,,
-1.2320 ,0.1400 ,,,,
-1.2290 ,0.0600 ,,,,
-1.2260 ,0.0200 ,,,,
-1.2220 ,-0.0200 ,,,,
-1.2190 ,-0.0600 ,,,,
-1.2160 ,-0.1000 ,,,,
-1.2130 ,-0.1400 ,,,,
-1.2100 ,-0.1800 ,,,,
-1.2060 ,-0.2200 ,,,,
-1.2030 ,-0.3000 ,,,,
-1.2000 ,-0.3400 ,,,,
-1.1970 ,-0.3400 ,,,,
-1.1940 ,-0.3400 ,,,,
-1.1900 ,-0.3400 ,,,,
-1.1870 ,-0.3800 ,,,,
-1.1840 ,-0.3800 ,,,,
-1.1810 ,-0.3800 ,,,,
-1.1780 ,-0.4200 ,,,,
-1.1740 ,-0.4200 ,,,,
-1.1710 ,-0.3800 ,,,,
-1.1680 ,-0.3800 ,,,,
-1.1650 ,-0.3400 ,,,,
-1.1620 ,-0.3400 ,,,,
-1.1580 ,-0.3400 ,,,,
-1.1550 ,-0.3000 ,,,,
-1.1520 ,-0.3000 ,,,,
-1.1490 ,-0.2600 ,,,,
-1.1460 ,-0.2200 ,,,,
-1.1420 ,-0.2200 ,,,,
-1.1390 ,-0.1800 ,,,,
-1.1360 ,-0.1400 ,,,,
-1.1330 ,-0.0600 ,,,,
-1.1300 ,-0.0600 ,,,,
-1.1260 ,0.0200 ,,,,
-1.1230 ,0.0600 ,,,,
-1.1200 ,0.1000 ,,,,
-1.1170 ,0.1000 ,,,,
-1.1140 ,0.1800 ,,,,
-1.1100 ,0.2600 ,,,,
-1.1070 ,0.2600 ,,,,
-1.1040 ,0.3400 ,,,,
-1.1010 ,0.3800 ,,,,
-1.0980 ,0.3800 ,,,,
-1.0940 ,0.4200 ,,,,
-1.0910 ,0.4600 ,,,,
-1.0880 ,0.5000 ,,,,
-1.0850 ,0.5000 ,,,,
-1.0820 ,0.5000 ,,,,
-1.0780 ,0.5000 ,,,,
-1.0750 ,0.5800 ,,,,
-1.0720 ,0.5400 ,,,,
-1.0690 ,0.5800 ,,,,
-1.0660 ,0.5800 ,,,,
-1.0620 ,0.5800 ,,,,
-1.0590 ,0.5400 ,,,,
-1.0560 ,0.5400 ,,,,
-1.0530 ,0.5400 ,,,,
-1.0500 ,0.5400 ,,,,
-1.0460 ,0.5000 ,,,,
-1.0430 ,0.5000 ,,,,
-1.0400 ,0.5000 ,,,,
-1.0370 ,0.4600 ,,,,
-1.0340 ,0.4200 ,,,,
-1.0300 ,0.4200 ,,,,
-1.0270 ,0.3800 ,,,,
-1.0240 ,0.3800 ,,,,
-1.0210 ,0.3400 ,,,,
-1.0180 ,0.2600 ,,,,
-1.0140 ,0.2200 ,,,,
-1.0110 ,0.2200 ,,,,
-1.0080 ,0.1400 ,,,,
-1.0050 ,0.1000 ,,,,
-1.0020 ,0.0600 ,,,,
-0.9984 ,0.0200 ,,,,
-0.9952 ,-0.0200 ,,,,
-0.9920 ,-0.0600 ,,,,
-0.9888 ,-0.1000 ,,,,
-0.9856 ,-0.1000 ,,,,
-0.9824 ,-0.1800 ,,,,
-0.9792 ,-0.2200 ,,,,
-0.9760 ,-0.2200 ,,,,
-0.9728 ,-0.2600 ,,,,
-0.9696 ,-0.2600 ,,,,
-0.9664 ,-0.3400 ,,,,
-0.9632 ,-0.3800 ,,,,
-0.9600 ,-0.3800 ,,,,
-0.9568 ,-0.4600 ,,,,
-0.9536 ,-0.4600 ,,,,
-0.9504 ,-0.5000 ,,,,
-0.9472 ,-0.5400 ,,,,
-0.9440 ,-0.5400 ,,,,
-0.9408 ,-0.6200 ,,,,
-0.9376 ,-0.6200 ,,,,
-0.9344 ,-0.7000 ,,,,
-0.9312 ,-0.7400 ,,,,
-0.9280 ,-0.7400 ,,,,
-0.9248 ,-0.7800 ,,,,
-0.9216 ,-0.7800 ,,,,
-0.9184 ,-0.8600 ,,,,
-0.9152 ,-0.8600 ,,,,
-0.9120 ,-0.8600 ,,,,
-0.9088 ,-0.9000 ,,,,
-0.9056 ,-0.9400 ,,,,
-0.9024 ,-0.9800 ,,,,
-0.8992 ,-0.9800 ,,,,
-0.8960 ,-0.9800 ,,,,
-0.8928 ,-0.9800 ,,,,
-0.8896 ,-0.9800 ,,,,
-0.8864 ,-1.0200 ,,,,
-0.8832 ,-1.1000 ,,,,
-0.8800 ,-1.0600 ,,,,
-0.8768 ,-1.0600 ,,,,
-0.8736 ,-1.1000 ,,,,
-0.8704 ,-1.1000 ,,,,
-0.8672 ,-1.1400 ,,,,
-0.8640 ,-1.1400 ,,,,
-0.8608 ,-1.1400 ,,,,
-0.8576 ,-1.1800 ,,,,
-0.8544 ,-1.1800 ,,,,
-0.8512 ,-1.2200 ,,,,
-0.8480 ,-1.2200 ,,,,
-0.8448 ,-1.2200 ,,,,
-0.8416 ,-1.2200 ,,,,
-0.8384 ,-1.2200 ,,,,
-0.8352 ,-1.2600 ,,,,
-0.8320 ,-1.3000 ,,,,
-0.8288 ,-1.2600 ,,,,
-0.8256 ,-1.2600 ,,,,
-0.8224 ,-1.3000 ,,,,
-0.8192 ,-1.2600 ,,,,
-0.8160 ,-1.3000 ,,,,
-0.8128 ,-1.3000 ,,,,
-0.8096 ,-1.2600 ,,,,
-0.8064 ,-1.2600 ,,,,
-0.8032 ,-1.2600 ,,,,
-0.8000 ,-1.2600 ,,,,
-0.7968 ,-1.2600 ,,,,
-0.7936 ,-1.2600 ,,,,
-0.7904 ,-1.2200 ,,,,
-0.7872 ,-1.2600 ,,,,
-0.7840 ,-1.2200 ,,,,
-0.7808 ,-1.2200 ,,,,
-0.7776 ,-1.2200 ,,,,
-0.7744 ,-1.1800 ,,,,
-0.7712 ,-1.2200 ,,,,
-0.7680 ,-1.1800 ,,,,
-0.7648 ,-1.2200 ,,,,
-0.7616 ,-1.1800 ,,,,
-0.7584 ,-1.1800 ,,,,
-0.7552 ,-1.1800 ,,,,
-0.7520 ,-1.1800 ,,,,
-0.7488 ,-1.1800 ,,,,
-0.7456 ,-1.2200 ,,,,
-0.7424 ,-1.1800 ,,,,
-0.7392 ,-1.2200 ,,,,
-0.7360 ,-1.1800 ,,,,
-0.7328 ,-1.2200 ,,,,
-0.7296 ,-1.2200 ,,,,
-0.7264 ,-1.2200 ,,,,
-0.7232 ,-1.2200 ,,,,
-0.7200 ,-1.2200 ,,,,
-0.7168 ,-1.2200 ,,,,
-0.7136 ,-1.2200 ,,,,
-0.7104 ,-1.2600 ,,,,
-0.7072 ,-1.2200 ,,,,
-0.7040 ,-1.2200 ,,,,
-0.7008 ,-1.2200 ,,,,
-0.6976 ,-1.2200 ,,,,
-0.6944 ,-1.2200 ,,,,
-0.6912 ,-1.2200 ,,,,
-0.6880 ,-1.2200 ,,,,
-0.6848 ,-1.1800 ,,,,
-0.6816 ,-1.1800 ,,,,
-0.6784 ,-1.1800 ,,,,
-0.6752 ,-1.1800 ,,,,
-0.6720 ,-1.1800 ,,,,
-0.6688 ,-1.1800 ,,,,
-0.6656 ,-1.1400 ,,,,
-0.6624 ,-1.1400 ,,,,
-0.6592 ,-1.1800 ,,,,
-0.6560 ,-1.1800 ,,,,
-0.6528 ,-1.1800 ,,,,
-0.6496 ,-1.1800 ,,,,
-0.6464 ,-1.1800 ,,,,
-0.6432 ,-1.1800 ,,,,
-0.6400 ,-1.1400 ,,,,
-0.6368 ,-1.2200 ,,,,
-0.6336 ,-1.2200 ,,,,
-0.6304 ,-1.2200 ,,,,
-0.6272 ,-1.2200 ,,,,
-0.6240 ,-1.2600 ,,,,
-0.6208 ,-1.2600 ,,,,
-0.6176 ,-1.3000 ,,,,
-0.6144 ,-1.3000 ,,,,
-0.6112 ,-1.3000 ,,,,
-0.6080 ,-1.3400 ,,,,
-0.6048 ,-1.3400 ,,,,
-0.6016 ,-1.3400 ,,,,
-0.5984 ,-1.3800 ,,,,
-0.5952 ,-1.4200 ,,,,
-0.5920 ,-1.4600 ,,,,
-0.5888 ,-1.4200 ,,,,
-0.5856 ,-1.4600 ,,,,
-0.5824 ,-1.4600 ,,,,
-0.5792 ,-1.5000 ,,,,
-0.5760 ,-1.4600 ,,,,
-0.5728 ,-1.5000 ,,,,
-0.5696 ,-1.5000 ,,,,
-0.5664 ,-1.5000 ,,,,
-0.5632 ,-1.5000 ,,,,
-0.5600 ,-1.5000 ,,,,
-0.5568 ,-1.4200 ,,,,
-0.5536 ,-1.3800 ,,,,
-0.5504 ,-1.3000 ,,,,
-0.5472 ,-1.2200 ,,,,
-0.5440 ,-1.1000 ,,,,
-0.5408 ,-1.0200 ,,,,
-0.5376 ,-0.8200 ,,,,
-0.5344 ,-0.6600 ,,,,
-0.5312 ,-0.5000 ,,,,
-0.5280 ,-0.3000 ,,,,
-0.5248 ,-0.1000 ,,,,
-0.5216 ,0.1000 ,,,,
-0.5184 ,0.3000 ,,,,
-0.5152 ,0.5400 ,,,,
-0.5120 ,0.7400 ,,,,
-0.5088 ,1.0200 ,,,,
-0.5056 ,1.2200 ,,,,
-0.5024 ,1.4200 ,,,,
-0.4992 ,1.6200 ,,,,
-0.4960 ,1.8200 ,,,,
-0.4928 ,1.9800 ,,,,
-0.4896 ,2.1000 ,,,,
-0.4864 ,2.2200 ,,,,
-0.4832 ,2.3800 ,,,,
-0.4800 ,2.4600 ,,,,
-0.4768 ,2.5400 ,,,,
-0.4736 ,2.6200 ,,,,
-0.4704 ,2.7000 ,,,,
-0.4672 ,2.7400 ,,,,
-0.4640 ,2.7400 ,,,,
-0.4608 ,2.7800 ,,,,
-0.4576 ,2.8200 ,,,,
-0.4544 ,2.8200 ,,,,
-0.4512 ,2.8200 ,,,,
-0.4480 ,2.7400 ,,,,
-0.4448 ,2.7400 ,,,,
-0.4416 ,2.7000 ,,,,
-0.4384 ,2.6600 ,,,,
-0.4352 ,2.5800 ,,,,
-0.4320 ,2.5400 ,,,,
-0.4288 ,2.4600 ,,,,
-0.4256 ,2.4200 ,,,,
-0.4224 ,2.3400 ,,,,
-0.4192 ,2.2600 ,,,,
-0.4160 ,2.1800 ,,,,
-0.4128 ,2.1000 ,,,,
-0.4096 ,2.0200 ,,,,
-0.4064 ,1.9800 ,,,,
-0.4032 ,1.8600 ,,,,
-0.4000 ,1.8200 ,,,,
-0.3968 ,1.7000 ,,,,
-0.3936 ,1.6600 ,,,,
-0.3904 ,1.5800 ,,,,
-0.3872 ,1.4600 ,,,,
-0.3840 ,1.3800 ,,,,
-0.3808 ,1.3400 ,,,,
-0.3776 ,1.2600 ,,,,
-0.3744 ,1.2200 ,,,,
-0.3712 ,1.1000 ,,,,
-0.3680 ,1.0200 ,,,,
-0.3648 ,0.9800 ,,,,
-0.3616 ,0.9000 ,,,,
-0.3584 ,0.8200 ,,,,
-0.3552 ,0.7800 ,,,,
-0.3520 ,0.7400 ,,,,
-0.3488 ,0.6600 ,,,,
-0.3456 ,0.6600 ,,,,
-0.3424 ,0.5800 ,,,,
-0.3392 ,0.5400 ,,,,
-0.3360 ,0.5000 ,,,,
-0.3328 ,0.4600 ,,,,
-0.3296 ,0.4200 ,,,,
-0.3264 ,0.3800 ,,,,
-0.3232 ,0.3400 ,,,,
-0.3200 ,0.3000 ,,,,
-0.3168 ,0.2600 ,,,,
-0.3136 ,0.2200 ,,,,
-0.3104 ,0.1800 ,,,,
-0.3072 ,0.1800 ,,,,
-0.3040 ,0.1400 ,,,,
-0.3008 ,0.1000 ,,,,
-0.2976 ,0.0600 ,,,,
-0.2944 ,0.0600 ,,,,
-0.2912 ,0.0200 ,,,,
-0.2880 ,0.0200 ,,,,
-0.2848 ,-0.0200 ,,,,
-0.2816 ,-0.0200 ,,,,
-0.2784 ,-0.0200 ,,,,
-0.2752 ,-0.0600 ,,,,
-0.2720 ,-0.0600 ,,,,
-0.2688 ,-0.0600 ,,,,
-0.2656 ,-0.0600 ,,,,
-0.2624 ,-0.1000 ,,,,
-0.2592 ,-0.0600 ,,,,
-0.2560 ,-0.0600 ,,,,
-0.2528 ,-0.0200 ,,,,
-0.2496 ,-0.0600 ,,,,
-0.2464 ,-0.0200 ,,,,
-0.2432 ,0.0200 ,,,,
-0.2400 ,0.0200 ,,,,
-0.2368 ,0.0200 ,,,,
-0.2336 ,0.0600 ,,,,
-0.2304 ,0.1000 ,,,,
-0.2272 ,0.1000 ,,,,
-0.2240 ,0.1400 ,,,,
-0.2208 ,0.1800 ,,,,
-0.2176 ,0.1800 ,,,,
-0.2144 ,0.2200 ,,,,
-0.2112 ,0.2600 ,,,,
-0.2080 ,0.3000 ,,,,
-0.2048 ,0.3000 ,,,,
-0.2016 ,0.3000 ,,,,
-0.1984 ,0.3800 ,,,,
-0.1952 ,0.3400 ,,,,
-0.1920 ,0.3800 ,,,,
-0.1888 ,0.4200 ,,,,
-0.1856 ,0.4200 ,,,,
-0.1824 ,0.4600 ,,,,
-0.1792 ,0.4600 ,,,,
-0.1760 ,0.5000 ,,,,
-0.1728 ,0.5000 ,,,,
-0.1696 ,0.5000 ,,,,
-0.1664 ,0.5000 ,,,,
-0.1632 ,0.5000 ,,,,
-0.1600 ,0.5000 ,,,,
-0.1568 ,0.5400 ,,,,
-0.1536 ,0.5000 ,,,,
-0.1504 ,0.5000 ,,,,
-0.1472 ,0.5000 ,,,,
-0.1440 ,0.5000 ,,,,
-0.1408 ,0.4600 ,,,,
-0.1376 ,0.4200 ,,,,
-0.1344 ,0.4200 ,,,,
-0.1312 ,0.4200 ,,,,
-0.1280 ,0.3800 ,,,,
-0.1248 ,0.3400 ,,,,
-0.1216 ,0.3000 ,,,,
-0.1184 ,0.3000 ,,,,
-0.1152 ,0.2600 ,,,,
-0.1120 ,0.2200 ,,,,
-0.1088 ,0.1800 ,,,,
-0.1056 ,0.1400 ,,,,
-0.1024 ,0.1000 ,,,,
-0.0992 ,0.1000 ,,,,
-0.0960 ,0.0200 ,,,,
-0.0928 ,0.0200 ,,,,
-0.0896 ,-0.0200 ,,,,
-0.0864 ,-0.0600 ,,,,
-0.0832 ,-0.1000 ,,,,
-0.0800 ,-0.1400 ,,,,
-0.0768 ,-0.1800 ,,,,
-0.0736 ,-0.2200 ,,,,
-0.0704 ,-0.2600 ,,,,
-0.0672 ,-0.3000 ,,,,
-0.0640 ,-0.3400 ,,,,
-0.0608 ,-0.3800 ,,,,
-0.0576 ,-0.4200 ,,,,
-0.0544 ,-0.4600 ,,,,
-0.0512 ,-0.4600 ,,,,
-0.0480 ,-0.5000 ,,,,
-0.0448 ,-0.5400 ,,,,
-0.0416 ,-0.5800 ,,,,
-0.0384 ,-0.6200 ,,,,
-0.0352 ,-0.6600 ,,,,
-0.0320 ,-0.7000 ,,,,
-0.0288 ,-0.7000 ,,,,
-0.0256 ,-0.7000 ,,,,
-0.0224 ,-0.7400 ,,,,
-0.0192 ,-0.7800 ,,,,
-0.0160 ,-0.7800 ,,,,
-0.0128 ,-0.8200 ,,,,
-0.0096 ,-0.8200 ,,,,
-0.0064 ,-0.8600 ,,,,
-0.0032 ,-0.8600 ,,,,
0.0000 ,-0.9000 ,,,,
0.0032 ,-0.9000 ,,,,
0.0064 ,-0.9000 ,,,,
0.0096 ,-0.9400 ,,,,
0.0128 ,-0.9400 ,,,,
0.0160 ,-0.9800 ,,,,
0.0192 ,-0.9800 ,,,,
0.0224 ,-0.9800 ,,,,
0.0256 ,-1.0200 ,,,,
0.0288 ,-1.0200 ,,,,
0.0320 ,-1.0600 ,,,,
0.0352 ,-1.1000 ,,,,
0.0384 ,-1.1000 ,,,,
0.0416 ,-1.1000 ,,,,
0.0448 ,-1.1400 ,,,,
0.0480 ,-1.1400 ,,,,
0.0512 ,-1.1400 ,,,,
0.0544 ,-1.1800 ,,,,
0.0576 ,-1.2200 ,,,,
0.0608 ,-1.2200 ,,,,
0.0640 ,-1.2200 ,,,,
0.0672 ,-1.2200 ,,,,
0.0704 ,-1.2200 ,,,,
0.0736 ,-1.2600 ,,,,
0.0768 ,-1.2200 ,,,,
0.0800 ,-1.2200 ,,,,
0.0832 ,-1.2200 ,,,,
0.0864 ,-1.2600 ,,,,
0.0896 ,-1.2200 ,,,,
0.0928 ,-1.2600 ,,,,
0.0960 ,-1.2200 ,,,,
0.0992 ,-1.2600 ,,,,
0.1024 ,-1.2200 ,,,,
0.1056 ,-1.1800 ,,,,
0.1088 ,-1.2200 ,,,,
0.1120 ,-1.2200 ,,,,
0.1152 ,-1.1800 ,,,,
0.1184 ,-1.1800 ,,,,
0.1216 ,-1.1800 ,,,,
0.1248 ,-1.1800 ,,,,
0.1280 ,-1.1400 ,,,,
0.1312 ,-1.1400 ,,,,
0.1344 ,-1.1400 ,,,,
0.1376 ,-1.1000 ,,,,
0.1408 ,-1.1400 ,,,,
0.1440 ,-1.1400 ,,,,
0.1472 ,-1.1000 ,,,,
0.1504 ,-1.1400 ,,,,
0.1536 ,-1.1400 ,,,,
0.1568 ,-1.1400 ,,,,
0.1600 ,-1.1000 ,,,,
0.1632 ,-1.1400 ,,,,
0.1664 ,-1.1400 ,,,,
0.1696 ,-1.1400 ,,,,
0.1728 ,-1.1000 ,,,,
0.1760 ,-1.1400 ,,,,
0.1792 ,-1.1400 ,,,,
0.1824 ,-1.1400 ,,,,
0.1856 ,-1.1400 ,,,,
0.1888 ,-1.1400 ,,,,
0.1920 ,-1.1800 ,,,,
0.1952 ,-1.1400 ,,,,
0.1984 ,-1.1400 ,,,,
0.2016 ,-1.1000 ,,,,
0.2048 ,-1.1400 ,,,,
0.2080 ,-1.1000 ,,,,
0.2112 ,-1.1400 ,,,,
0.2144 ,-1.1000 ,,,,
0.2176 ,-1.1000 ,,,,
0.2208 ,-1.1000 ,,,,
0.2240 ,-1.1000 ,,,,
0.2272 ,-1.1000 ,,,,
0.2304 ,-1.1000 ,,,,
0.2336 ,-1.1400 ,,,,
0.2368 ,-1.1400 ,,,,
0.2400 ,-1.1000 ,,,,
0.2432 ,-1.1000 ,,,,
0.2464 ,-1.1000 ,,,,
0.2496 ,-1.1000 ,,,,
0.2528 ,-1.1000 ,,,,
0.2560 ,-1.1400 ,,,,
0.2592 ,-1.1400 ,,,,
0.2624 ,-1.1400 ,,,,
0.2656 ,-1.1400 ,,,,
0.2688 ,-1.1800 ,,,,
0.2720 ,-1.1400 ,,,,
0.2752 ,-1.1800 ,,,,
0.2784 ,-1.1800 ,,,,
0.2816 ,-1.1800 ,,,,
0.2848 ,-1.1800 ,,,,
0.2880 ,-1.1800 ,,,,
0.2912 ,-1.2200 ,,,,
0.2944 ,-1.1800 ,,,,
0.2976 ,-1.2200 ,,,,
0.3008 ,-1.2200 ,,,,
0.3040 ,-1.2200 ,,,,
0.3072 ,-1.2600 ,,,,
0.3104 ,-1.3000 ,,,,
0.3136 ,-1.3000 ,,,,
0.3168 ,-1.3400 ,,,,
0.3200 ,-1.3400 ,,,,
0.3232 ,-1.3800 ,,,,
0.3264 ,-1.4200 ,,,,
0.3296 ,-1.4200 ,,,,
0.3328 ,-1.4600 ,,,,
0.3360 ,-1.4600 ,,,,
0.3392 ,-1.4600 ,,,,
0.3424 ,-1.5000 ,,,,
0.3456 ,-1.5000 ,,,,
0.3488 ,-1.5400 ,,,,
0.3520 ,-1.5400 ,,,,
0.3552 ,-1.5400 ,,,,
0.3584 ,-1.5400 ,,,,
0.3616 ,-1.5800 ,,,,
0.3648 ,-1.5000 ,,,,
0.3680 ,-1.4600 ,,,,
0.3712 ,-1.3800 ,,,,
0.3744 ,-1.2600 ,,,,
0.3776 ,-1.1400 ,,,,
0.3808 ,-0.9800 ,,,,
0.3840 ,-0.8200 ,,,,
0.3872 ,-0.6600 ,,,,
0.3904 ,-0.4600 ,,,,
0.3936 ,-0.2600 ,,,,
0.3968 ,-0.0200 ,,,,
0.4000 ,0.1800 ,,,,
0.4032 ,0.4600 ,,,,
0.4064 ,0.7000 ,,,,
0.4096 ,0.9000 ,,,,
0.4128 ,1.1400 ,,,,
0.4160 ,1.3400 ,,,,
0.4192 ,1.5400 ,,,,
0.4224 ,1.7400 ,,,,
0.4256 ,1.9000 ,,,,
0.4288 ,2.0600 ,,,,
0.4320 ,2.1800 ,,,,
0.4352 ,2.3400 ,,,,
0.4384 ,2.4200 ,,,,
0.4416 ,2.5000 ,,,,
0.4448 ,2.5800 ,,,,
0.4480 ,2.6600 ,,,,
0.4512 ,2.7000 ,,,,
0.4544 ,2.7400 ,,,,
0.4576 ,2.7800 ,,,,
0.4608 ,2.7800 ,,,,
0.4640 ,2.7800 ,,,,
0.4672 ,2.7800 ,,,,
0.4704 ,2.7400 ,,,,
0.4736 ,2.7000 ,,,,
0.4768 ,2.7000 ,,,,
0.4800 ,2.6600 ,,,,
0.4832 ,2.5800 ,,,,
0.4864 ,2.5400 ,,,,
0.4896 ,2.4600 ,,,,
0.4928 ,2.3800 ,,,,
0.4960 ,2.3400 ,,,,
0.4992 ,2.2600 ,,,,
0.5024 ,2.1400 ,,,,
0.5056 ,2.0600 ,,,,
0.5088 ,1.9800 ,,,,
0.5120 ,1.9000 ,,,,
0.5152 ,1.8200 ,,,,
0.5184 ,1.7400 ,,,,
0.5216 ,1.6200 ,,,,
0.5248 ,1.5400 ,,,,
0.5280 ,1.5000 ,,,,
0.5312 ,1.3800 ,,,,
0.5344 ,1.3000 ,,,,
0.5376 ,1.2200 ,,,,
0.5408 ,1.1400 ,,,,
0.5440 ,1.1000 ,,,,
0.5472 ,1.0200 ,,,,
0.5504 ,0.9400 ,,,,
0.5536 ,0.9000 ,,,,
0.5568 ,0.8600 ,,,,
0.5600 ,0.8200 ,,,,
0.5632 ,0.7400 ,,,,
0.5664 ,0.7000 ,,,,
0.5696 ,0.6600 ,,,,
0.5728 ,0.6200 ,,,,
0.5760 ,0.5400 ,,,,
0.5792 ,0.5000 ,,,,
0.5824 ,0.4600 ,,,,
0.5856 ,0.4600 ,,,,
0.5888 ,0.4200 ,,,,
0.5920 ,0.3800 ,,,,
0.5952 ,0.3400 ,,,,
0.5984 ,0.3000 ,,,,
0.6016 ,0.2600 ,,,,
0.6048 ,0.2200 ,,,,
0.6080 ,0.2200 ,,,,
0.6112 ,0.1800 ,,,,
0.6144 ,0.1800 ,,,,
0.6176 ,0.1000 ,,,,
0.6208 ,0.1000 ,,,,
0.6240 ,0.1000 ,,,,
0.6272 ,0.0600 ,,,,
0.6304 ,0.0600 ,,,,
0.6336 ,0.0600 ,,,,
0.6368 ,0.0200 ,,,,
0.6400 ,0.0200 ,,,,
0.6432 ,-0.0200 ,,,,
0.6464 ,-0.0200 ,,,,
0.6496 ,0.0200 ,,,,
0.6528 ,-0.0200 ,,,,
0.6560 ,-0.0200 ,,,,
0.6592 ,-0.0200 ,,,,
0.6624 ,-0.0200 ,,,,
0.6656 ,0.0200 ,,,,
0.6688 ,-0.0200 ,,,,
0.6720 ,0.0200 ,,,,
0.6752 ,0.0200 ,,,,
0.6784 ,0.0200 ,,,,
0.6816 ,0.0600 ,,,,
0.6848 ,0.0600 ,,,,
0.6880 ,0.1000 ,,,,
0.6912 ,0.1400 ,,,,
0.6944 ,0.1400 ,,,,
0.6976 ,0.1800 ,,,,
0.7008 ,0.2200 ,,,,
0.7040 ,0.2600 ,,,,
0.7072 ,0.2600 ,,,,
0.7104 ,0.3000 ,,,,
0.7136 ,0.3400 ,,,,
0.7168 ,0.3800 ,,,,
0.7200 ,0.3800 ,,,,
0.7232 ,0.4200 ,,,,
0.7264 ,0.4200 ,,,,
0.7296 ,0.4200 ,,,,
0.7328 ,0.4600 ,,,,
0.7360 ,0.5000 ,,,,
0.7392 ,0.5000 ,,,,
0.7424 ,0.5000 ,,,,
0.7456 ,0.5400 ,,,,
0.7488 ,0.5000 ,,,,
0.7520 ,0.5000 ,,,,
0.7552 ,0.5000 ,,,,
0.7584 ,0.5000 ,,,,
0.7616 ,0.5000 ,,,,
0.7648 ,0.5000 ,,,,
0.7680 ,0.5000 ,,,,
0.7712 ,0.4600 ,,,,
0.7744 ,0.5000 ,,,,
0.7776 ,0.4600 ,,,,
0.7808 ,0.4600 ,,,,
0.7840 ,0.4600 ,,,,
0.7872 ,0.4200 ,,,,
0.7904 ,0.3800 ,,,,
0.7936 ,0.3400 ,,,,
0.7968 ,0.3400 ,,,,
0.8000 ,0.3000 ,,,,
0.8032 ,0.2600 ,,,,
0.8064 ,0.2200 ,,,,
0.8096 ,0.1800 ,,,,
0.8128 ,0.1800 ,,,,
0.8160 ,0.1400 ,,,,
0.8192 ,0.0600 ,,,,
0.8224 ,0.0600 ,,,,
0.8256 ,0.0200 ,,,,
0.8288 ,-0.0200 ,,,,
0.8320 ,-0.0600 ,,,,
0.8352 ,-0.1000 ,,,,
0.8384 ,-0.1400 ,,,,
0.8416 ,-0.1800 ,,,,
0.8448 ,-0.2200 ,,,,
0.8480 ,-0.2200 ,,,,
0.8512 ,-0.2600 ,,,,
0.8544 ,-0.3000 ,,,,
0.8576 ,-0.3400 ,,,,
0.8608 ,-0.3400 ,,,,
0.8640 ,-0.3800 ,,,,
0.8672 ,-0.4200 ,,,,
0.8704 ,-0.4600 ,,,,
0.8736 ,-0.5400 ,,,,
0.8768 ,-0.5400 ,,,,
0.8800 ,-0.5400 ,,,,
0.8832 ,-0.6200 ,,,,
0.8864 ,-0.6200 ,,,,
0.8896 ,-0.6600 ,,,,
0.8928 ,-0.7000 ,,,,
0.8960 ,-0.7400 ,,,,
0.8992 ,-0.7800 ,,,,
0.9024 ,-0.8200 ,,,,
0.9056 ,-0.8600 ,,,,
0.9088 ,-0.8600 ,,,,
0.9120 ,-0.8600 ,,,,
0.9152 ,-0.9400 ,,,,
0.9184 ,-0.9400 ,,,,
0.9216 ,-0.9400 ,,,,
0.9248 ,-0.9800 ,,,,
0.9280 ,-1.0200 ,,,,
0.9312 ,-1.0200 ,,,,
0.9344 ,-0.9800 ,,,,
0.9376 ,-0.9800 ,,,,
0.9408 ,-1.0200 ,,,,
0.9440 ,-1.0200 ,,,,
0.9472 ,-0.9800 ,,,,
0.9504 ,-1.0200 ,,,,
0.9536 ,-1.0600 ,,,,
0.9568 ,-1.0600 ,,,,
0.9600 ,-1.0600 ,,,,
0.9632 ,-1.0600 ,,,,
0.9664 ,-1.1000 ,,,,
0.9696 ,-1.1000 ,,,,
0.9728 ,-1.1000 ,,,,
0.9760 ,-1.1400 ,,,,
0.9792 ,-1.1800 ,,,,
0.9824 ,-1.1800 ,,,,
0.9856 ,-1.1800 ,,,,
0.9888 ,-1.2200 ,,,,
0.9920 ,-1.2200 ,,,,
0.9952 ,-1.1800 ,,,,
0.9984 ,-1.2200 ,,,,
1.0020 ,-1.2200 ,,,,
1.0050 ,-1.2600 ,,,,
1.0080 ,-1.2600 ,,,,
1.0110 ,-1.2200 ,,,,
1.0140 ,-1.2200 ,,,,
1.0180 ,-1.2600 ,,,,
1.0210 ,-1.2200 ,,,,
1.0240 ,-1.2200 ,,,,
1.0270 ,-1.1800 ,,,,
1.0300 ,-1.2200 ,,,,
1.0340 ,-1.1800 ,,,,
1.0370 ,-1.2200 ,,,,
1.0400 ,-1.1400 ,,,,
1.0430 ,-1.1400 ,,,,
1.0460 ,-1.1400 ,,,,
1.0500 ,-1.1400 ,,,,
1.0530 ,-1.1800 ,,,,
1.0560 ,-1.1400 ,,,,
1.0590 ,-1.1400 ,,,,
1.0620 ,-1.1400 ,,,,
1.0660 ,-1.1800 ,,,,
1.0690 ,-1.1400 ,,,,
1.0720 ,-1.1400 ,,,,
1.0750 ,-1.1400 ,,,,
1.0780 ,-1.1400 ,,,,
1.0820 ,-1.1000 ,,,,
1.0850 ,-1.1000 ,,,,
1.0880 ,-1.1400 ,,,,
1.0910 ,-1.1400 ,,,,
1.0940 ,-1.1400 ,,,,
1.0980 ,-1.1000 ,,,,
1.1010 ,-1.1000 ,,,,
1.1040 ,-1.1400 ,,,,
1.1070 ,-1.1400 ,,,,
1.1100 ,-1.1000 ,,,,
1.1140 ,-1.1000 ,,,,
1.1170 ,-1.1000 ,,,,
1.1200 ,-1.1000 ,,,,
1.1230 ,-1.0600 ,,,,
1.1260 ,-1.1000 ,,,,
1.1300 ,-1.0600 ,,,,
1.1330 ,-1.0600 ,,,,
1.1360 ,-1.1000 ,,,,
1.1390 ,-1.1000 ,,,,
1.1420 ,-1.0600 ,,,,
1.1460 ,-1.0600 ,,,,
1.1490 ,-1.0600 ,,,,
1.1520 ,-1.0600 ,,,,
1.1550 ,-1.1000 ,,,,
1.1580 ,-1.0600 ,,,,
1.1620 ,-1.0600 ,,,,
1.1650 ,-1.1000 ,,,,
1.1680 ,-1.0600 ,,,,
1.1710 ,-1.1000 ,,,,
1.1740 ,-1.0600 ,,,,
1.1780 ,-1.1000 ,,,,
1.1810 ,-1.1000 ,,,,
1.1840 ,-1.1000 ,,,,
1.1870 ,-1.1000 ,,,,
1.1900 ,-1.1000 ,,,,
1.1940 ,-1.1400 ,,,,
1.1970 ,-1.1400 ,,,,
1.2000 ,-1.1800 ,,,,
1.2030 ,-1.1800 ,,,,
1.2060 ,-1.1800 ,,,,
1.2100 ,-1.1800 ,,,,
1.2130 ,-1.1800 ,,,,
1.2160 ,-1.2200 ,,,,
1.2190 ,-1.2200 ,,,,
1.2220 ,-1.2600 ,,,,
1.2260 ,-1.2600 ,,,,
1.2290 ,-1.3000 ,,,,
1.2320 ,-1.2600 ,,,,
1.2350 ,-1.3000 ,,,,
1.2380 ,-1.3000 ,,,,
1.2420 ,-1.3400 ,,,,
1.2450 ,-1.3400 ,,,,
1.2480 ,-1.3400 ,,,,
1.2510 ,-1.3400 ,,,,
1.2540 ,-1.3400 ,,,,
1.2580 ,-1.3800 ,,,,
1.2610 ,-1.3800 ,,,,
1.2640 ,-1.3800 ,,,,
1.2670 ,-1.3400 ,,,,
1.2700 ,-1.3400 ,,,,
1.2740 ,-1.3000 ,,,,
1.2770 ,-1.3000 ,,,,
1.2800 ,-1.2200 ,,,,
1.2830 ,-1.1400 ,,,,
1.2860 ,-1.0600 ,,,,
1.2900 ,-0.9400 ,,,,
1.2930 ,-0.8600 ,,,,
1.2960 ,-0.7000 ,,,,
1.2990 ,-0.5400 ,,,,
1.3020 ,-0.3400 ,,,,
1.3060 ,-0.1800 ,,,,
1.3090 ,0.0200 ,,,,
1.3120 ,0.2200 ,,,,
1.3150 ,0.4600 ,,,,
1.3180 ,0.6600 ,,,,
1.3220 ,0.9000 ,,,,
1.3250 ,1.1400 ,,,,
1.3280 ,1.3000 ,,,,
1.3310 ,1.5000 ,,,,
1.3340 ,1.7000 ,,,,
1.3380 ,1.8600 ,,,,
1.3410 ,2.0200 ,,,,
1.3440 ,2.1400 ,,,,
1.3470 ,2.3000 ,,,,
1.3500 ,2.4200 ,,,,
1.3540 ,2.5000 ,,,,
1.3570 ,2.5800 ,,,,
1.3600 ,2.6600 ,,,,
1.3630 ,2.7400 ,,,,
1.3660 ,2.7800 ,,,,
1.3700 ,2.7800 ,,,,
1.3730 ,2.8200 ,,,,
1.3760 ,2.8200 ,,,,
1.3790 ,2.8200 ,,,,
1.3820 ,2.8200 ,,,,
1.3860 ,2.8200 ,,,,
1.3890 ,2.7800 ,,,,
1.3920 ,2.7400 ,,,,
1.3950 ,2.7000 ,,,,
1.3980 ,2.6600 ,,,,
1.4020 ,2.5800 ,,,,
1.4050 ,2.5400 ,,,,
1.4080 ,2.4600 ,,,,
1.4110 ,2.3800 ,,,,
1.4140 ,2.3000 ,,,,
1.4180 ,2.2200 ,,,,
1.4210 ,2.1400 ,,,,
1.4240 ,2.0600 ,,,,
1.4270 ,1.9400 ,,,,
1.4300 ,1.9000 ,,,,
1.4340 ,1.8200 ,,,,
1.4370 ,1.7400 ,,,,
1.4400 ,1.6600 ,,,,
1.4430 ,1.5800 ,,,,
1.4460 ,1.4600 ,,,,
1.4500 ,1.3800 ,,,,
1.4530 ,1.3400 ,,,,
1.4560 ,1.2600 ,,,,
1.4590 ,1.1800 ,,,,
1.4620 ,1.1400 ,,,,
1.4660 ,1.1000 ,,,,
1.4690 ,0.9800 ,,,,
1.4720 ,0.9400 ,,,,
1.4750 ,0.9000 ,,,,
1.4780 ,0.8200 ,,,,
1.4820 ,0.7800 ,,,,
1.4850 ,0.7400 ,,,,
1.4880 ,0.6600 ,,,,
1.4910 ,0.6200 ,,,,
1.4940 ,0.5800 ,,,,
1.4980 ,0.5400 ,,,,
1.5010 ,0.5000 ,,,,
1.5040 ,0.4600 ,,,,
1.5070 ,0.4600 ,,,,
1.5100 ,0.4200 ,,,,
1.5140 ,0.3400 ,,,,
1.5170 ,0.3000 ,,,,
1.5200 ,0.3000 ,,,,
1.5230 ,0.2600 ,,,,
1.5260 ,0.2200 ,,,,
1.5300 ,0.1800 ,,,,
1.5330 ,0.1400 ,,,,
1.5360 ,0.1400 ,,,,
1.5390 ,0.1000 ,,,,
1.5420 ,0.1000 ,,,,
1.5460 ,0.0600 ,,,,
1.5490 ,0.0600 ,,,,
1.5520 ,0.0200 ,,,,
1.5550 ,0.0200 ,,,,
1.5580 ,0.0200 ,,,,
1.5620 ,0.0200 ,,,,
1.5650 ,0.0200 ,,,,
1.5680 ,0.0200 ,,,,
1.5710 ,0.0600 ,,,,
1.5740 ,0.0600 ,,,,
1.5780 ,0.0600 ,,,,
1.5810 ,0.0600 ,,,,
1.5840 ,0.1400 ,,,,
1.5870 ,0.1400 ,,,,
1.5900 ,0.1800 ,,,,
1.5940 ,0.1800 ,,,,
1.5970 ,0.2200 ,,,,
1.6000 ,0.2600 ,,,,
1.6030 ,0.3000 ,,,,
1.6060 ,0.3400 ,,,,
1.6100 ,0.3800 ,,,,
1.6130 ,0.3800 ,,,,
1.6160 ,0.4600 ,,,,
1.6190 ,0.4600 ,,,,
1.6220 ,0.5000 ,,,,
1.6260 ,0.5000 ,,,,
1.6290 ,0.5400 ,,,,
1.6320 ,0.5800 ,,,,
1.6350 ,0.6200 ,,,,
1.6380 ,0.6600 ,,,,
1.6420 ,0.6200 ,,,,
1.6450 ,0.6600 ,,,,
1.6480 ,0.6600 ,,,,
1.6510 ,0.7000 ,,,,
1.6540 ,0.7400 ,,,,
1.6580 ,0.7000 ,,,,
1.6610 ,0.7000 ,,,,
1.6640 ,0.7400 ,,,,
1.6670 ,0.7400 ,,,,
1.6700 ,0.7800 ,,,,
1.6740 ,0.7400 ,,,,
1.6770 ,0.7400 ,,,,
1.6800 ,0.7400 ,,,,
1.6830 ,0.7000 ,,,,
1.6860 ,0.7000 ,,,,
1.6900 ,0.7000 ,,,,
1.6930 ,0.6600 ,,,,
1.6960 ,0.6200 ,,,,
1.6990 ,0.6200 ,,,,
1.7020 ,0.6200 ,,,,
1.7060 ,0.5800 ,,,,
1.7090 ,0.5400 ,,,,
1.7120 ,0.5000 ,,,,
1.7150 ,0.4600 ,,,,
1.7180 ,0.4200 ,,,,
1.7220 ,0.4200 ,,,,
1.7250 ,0.3800 ,,,,
1.7280 ,0.3400 ,,,,
1.7310 ,0.2600 ,,,,
1.7340 ,0.2200 ,,,,
1.7380 ,0.1800 ,,,,
1.7410 ,0.1400 ,,,,
1.7440 ,0.1000 ,,,,
1.7470 ,0.0600 ,,,,
1.7500 ,0.0200 ,,,,
1.7540 ,-0.0200 ,,,,
1.7570 ,-0.0600 ,,,,
1.7600 ,-0.0600 ,,,,
1.7630 ,-0.1400 ,,,,
1.7660 ,-0.1800 ,,,,
1.7700 ,-0.1800 ,,,,
1.7730 ,-0.2600 ,,,,
1.7760 ,-0.2600 ,,,,
1.7790 ,-0.3000 ,,,,
1.7820 ,-0.3800 ,,,,
1.7860 ,-0.3400 ,,,,
1.7890 ,-0.3800 ,,,,
1.7920 ,-0.4600 ,,,,
1.7950 ,-0.4600 ,,,,
1.7980 ,-0.4600 ,,,,
1.8020 ,-0.5000 ,,,,
1.8050 ,-0.5800 ,,,,
1.8080 ,-0.5800 ,,,,
1.8110 ,-0.6200 ,,,,
1.8140 ,-0.6600 ,,,,
1.8180 ,-0.6600 ,,,,
1.8210 ,-0.6600 ,,,,
1.8240 ,-0.7400 ,,,,
1.8270 ,-0.7400 ,,,,
1.8300 ,-0.7800 ,,,,
1.8340 ,-0.8200 ,,,,
1.8370 ,-0.8200 ,,,,
1.8400 ,-0.8600 ,,,,
1.8430 ,-0.8600 ,,,,
1.8460 ,-0.9000 ,,,,
1.8500 ,-0.8600 ,,,,
1.8530 ,-0.9000 ,,,,
1.8560 ,-0.9000 ,,,,
1.8590 ,-0.9000 ,,,,
1.8620 ,-0.9400 ,,,,
1.8660 ,-0.9000 ,,,,
1.8690 ,-0.9000 ,,,,
1.8720 ,-0.9000 ,,,,
1.8750 ,-0.9000 ,,,,
1.8780 ,-0.9000 ,,,,
1.8820 ,-0.9400 ,,,,
1.8850 ,-0.9000 ,,,,
1.8880 ,-0.9400 ,,,,
1.8910 ,-0.9400 ,,,,
1.8940 ,-0.9400 ,,,,
1.8980 ,-0.9400 ,,,,
1.9010 ,-0.9400 ,,,,
1.9040 ,-0.9400 ,,,,
1.9070 ,-0.9400 ,,,,
1.9100 ,-0.9800 ,,,,
1.9140 ,-0.9800 ,,,,
1.9170 ,-0.9800 ,,,,
1.9200 ,-0.9800 ,,,,
1.9230 ,-0.9800 ,,,,
1.9260 ,-0.9800 ,,,,
1.9300 ,-0.9800 ,,,,
1.9330 ,-0.9800 ,,,,
1.9360 ,-0.9800 ,,,,
1.9390 ,-0.9800 ,,,,
1.9420 ,-0.9800 ,,,,
1.9460 ,-1.0200 ,,,,
1.9490 ,-1.0200 ,,,,
1.9520 ,-0.9800 ,,,,
1.9550 ,-0.9800 ,,,,
1.9580 ,-0.9400 ,,,,
1.9620 ,-0.9400 ,,,,
1.9650 ,-0.9400 ,,,,
1.9680 ,-0.9400 ,,,,
1.9710 ,-0.9000 ,,,,
1.9740 ,-0.9000 ,,,,
1.9780 ,-0.9000 ,,,,
1.9810 ,-0.9000 ,,,,
1.9840 ,-0.9000 ,,,,
1.9870 ,-0.9000 ,,,,
1.9900 ,-0.8600 ,,,,
1.9940 ,-0.9000 ,,,,
1.9970 ,-0.8600 ,,,,
2.0000 ,-0.9000 ,,,,
2.0030 ,-0.8600 ,,,,
2.0060 ,-0.9000 ,,,,
2.0100 ,-0.8600 ,,,,
2.0130 ,-0.9000 ,,,,
2.0160 ,-0.9000 ,,,,
2.0190 ,-0.8600 ,,,,
2.0220 ,-0.9000 ,,,,
2.0260 ,-0.9000 ,,,,
2.0290 ,-0.9000 ,,,,
2.0320 ,-0.9000 ,,,,
2.0350 ,-0.9000 ,,,,
2.0380 ,-0.9400 ,,,,
2.0420 ,-0.9400 ,,,,
2.0450 ,-0.9400 ,,,,
2.0480 ,-0.9400 ,,,,
2.0510 ,-0.9400 ,,,,
2.0540 ,-0.9400 ,,,,
2.0580 ,-0.9400 ,,,,
2.0610 ,-0.9400 ,,,,
2.0640 ,-0.9800 ,,,,
2.0670 ,-0.9800 ,,,,
2.0700 ,-0.9800 ,,,,
2.0740 ,-0.9800 ,,,,
2.0770 ,-0.9800 ,,,,
2.0800 ,-1.0200 ,,,,
2.0830 ,-1.0600 ,,,,
2.0860 ,-1.0200 ,,,,
2.0900 ,-1.0600 ,,,,
2.0930 ,-1.0600 ,,,,
2.0960 ,-1.0600 ,,,,
2.0990 ,-1.1000 ,,,,
2.1020 ,-1.1000 ,,,,
2.1060 ,-1.1000 ,,,,
2.1090 ,-1.1400 ,,,,
2.1120 ,-1.1000 ,,,,
2.1150 ,-1.1400 ,,,,
2.1180 ,-1.1800 ,,,,
2.1220 ,-1.2200 ,,,,
2.1250 ,-1.2200 ,,,,
2.1280 ,-1.2200 ,,,,
2.1310 ,-1.1800 ,,,,
2.1340 ,-1.2200 ,,,,
2.1380 ,-1.1800 ,,,,
2.1410 ,-1.1400 ,,,,
2.1440 ,-1.1000 ,,,,
2.1470 ,-1.0600 ,,,,
2.1500 ,-0.9400 ,,,,
2.1540 ,-0.8600 ,,,,
2.1570 ,-0.7400 ,,,,
2.1600 ,-0.6200 ,,,,
2.1630 ,-0.4200 ,,,,
2.1660 ,-0.2600 ,,,,
2.1700 ,-0.1000 ,,,,
2.1730 ,0.1000 ,,,,
2.1760 ,0.3000 ,,,,
2.1790 ,0.5400 ,,,,
2.1820 ,0.7400 ,,,,
2.1860 ,0.9400 ,,,,
2.1890 ,1.1400 ,,,,
2.1920 ,1.3400 ,,,,
2.1950 ,1.5000 ,,,,
2.1980 ,1.7000 ,,,,
2.2020 ,1.8600 ,,,,
2.2050 ,2.0200 ,,,,
2.2080 ,2.1400 ,,,,
2.2110 ,2.2600 ,,,,
2.2140 ,2.3800 ,,,,
2.2180 ,2.4600 ,,,,
2.2210 ,2.5400 ,,,,
2.2240 ,2.5800 ,,,,
2.2270 ,2.6200 ,,,,
2.2300 ,2.7000 ,,,,
2.2340 ,2.7000 ,,,,
2.2370 ,2.7400 ,,,,
2.2400 ,2.7000 ,,,,
2.2430 ,2.7000 ,,,,
2.2460 ,2.7000 ,,,,
2.2500 ,2.6600 ,,,,
2.2530 ,2.6200 ,,,,
2.2560 ,2.5800 ,,,,
2.2590 ,2.5400 ,,,,
2.2620 ,2.4600 ,,,,
2.2660 ,2.4200 ,,,,
2.2690 ,2.3400 ,,,,
2.2720 ,2.2600 ,,,,
2.2750 ,2.1800 ,,,,
2.2780 ,2.0600 ,,,,
2.2820 ,1.9800 ,,,,
2.2850 ,1.9000 ,,,,
2.2880 ,1.8200 ,,,,
2.2910 ,1.7400 ,,,,
2.2940 ,1.6600 ,,,,
2.2980 ,1.5800 ,,,,
2.3010 ,1.5000 ,,,,
2.3040 ,1.4600 ,,,,
2.3070 ,1.3800 ,,,,
2.3100 ,1.2600 ,,,,
2.3140 ,1.2600 ,,,,
2.3170 ,1.1800 ,,,,
2.3200 ,1.1000 ,,,,
2.3230 ,1.0200 ,,,,
2.3260 ,0.9800 ,,,,
2.3300 ,0.9000 ,,,,
2.3330 ,0.8200 ,,,,
2.3360 ,0.8200 ,,,,
2.3390 ,0.7400 ,,,,
2.3420 ,0.6600 ,,,,
2.3460 ,0.6200 ,,,,
2.3490 ,0.5400 ,,,,
2.3520 ,0.5000 ,,,,
2.3550 ,0.4600 ,,,,
2.3580 ,0.3800 ,,,,
2.3620 ,0.3400 ,,,,
2.3650 ,0.2600 ,,,,
2.3680 ,0.2200 ,,,,
2.3710 ,0.1800 ,,,,
2.3740 ,0.1800 ,,,,
2.3780 ,0.1000 ,,,,
2.3810 ,0.0600 ,,,,
2.3840 ,0.0200 ,,,,
2.3870 ,-0.0200 ,,,,
2.3900 ,-0.0600 ,,,,
2.3940 ,-0.1000 ,,,,
2.3970 ,-0.1000 ,,,,
2.4000 ,-0.1400 ,,,,
2.4030 ,-0.1400 ,,,,
2.4060 ,-0.1800 ,,,,
2.4100 ,-0.1800 ,,,,
2.4130 ,-0.2200 ,,,,
2.4160 ,-0.1800 ,,,,
2.4190 ,-0.1800 ,,,,
2.4220 ,-0.1800 ,,,,
2.4260 ,-0.1800 ,,,,
2.4290 ,-0.1800 ,,,,
2.4320 ,-0.1800 ,,,,
2.4350 ,-0.1400 ,,,,
2.4380 ,-0.1400 ,,,,
2.4420 ,-0.1000 ,,,,
2.4450 ,-0.1000 ,,,,
2.4480 ,-0.0600 ,,,,
2.4510 ,-0.0600 ,,,,
2.4540 ,-0.0200 ,,,,
2.4580 ,0.0200 ,,,,
2.4610 ,0.0600 ,,,,
2.4640 ,0.0600 ,,,,
2.4670 ,0.1000 ,,,,
2.4700 ,0.1400 ,,,,
2.4740 ,0.1800 ,,,,
2.4770 ,0.2200 ,,,,
2.4800 ,0.2200 ,,,,
2.4830 ,0.2600 ,,,,
2.4860 ,0.3400 ,,,,
2.4900 ,0.3400 ,,,,
2.4930 ,0.3800 ,,,,
2.4960 ,0.3800 ,,,,
2.4990 ,0.4200 ,,,,
2.5020 ,0.4600 ,,,,
2.5060 ,0.5000 ,,,,
2.5090 ,0.5000 ,,,,
2.5120 ,0.5400 ,,,,
2.5150 ,0.5800 ,,,,
2.5180 ,0.5800 ,,,,
2.5220 ,0.5800 ,,,,
2.5250 ,0.5800 ,,,,
2.5280 ,0.5800 ,,,,
2.5310 ,0.6200 ,,,,
2.5340 ,0.6200 ,,,,
2.5380 ,0.5800 ,,,,
2.5410 ,0.5800 ,,,,
2.5440 ,0.5800 ,,,,
2.5470 ,0.5400 ,,,,
2.5500 ,0.5400 ,,,,
2.5540 ,0.5000 ,,,,
2.5570 ,0.4600 ,,,,
2.5600 ,0.4600 ,,,,
2.5630 ,0.4600 ,,,,
2.5660 ,0.3800 ,,,,
2.5700 ,0.3800 ,,,,
2.5730 ,0.3400 ,,,,
2.5760 ,0.3000 ,,,,
2.5790 ,0.2600 ,,,,
2.5820 ,0.2200 ,,,,
2.5860 ,0.1800 ,,,,
2.5890 ,0.1400 ,,,,
2.5920 ,0.1400 ,,,,
2.5950 ,0.1000 ,,,,
2.5980 ,0.0600 ,,,,
2.6020 ,-0.0200 ,,,,
2.6050 ,-0.0200 ,,,,
2.6080 ,-0.1400 ,,,,
2.6110 ,-0.1400 ,,,,
2.6140 ,-0.1800 ,,,,
2.6180 ,-0.2200 ,,,,
2.6210 ,-0.3000 ,,,,
2.6240 ,-0.3400 ,,,,
2.6270 ,-0.3400 ,,,,
2.6300 ,-0.3800 ,,,,
2.6340 ,-0.4200 ,,,,
2.6370 ,-0.4600 ,,,,
2.6400 ,-0.5000 ,,,,
2.6430 ,-0.5000 ,,,,
2.6460 ,-0.5800 ,,,,
2.6500 ,-0.6200 ,,,,
2.6530 ,-0.6200 ,,,,
2.6560 ,-0.6600 ,,,,
2.6590 ,-0.7000 ,,,,
2.6620 ,-0.7400 ,,,,
2.6660 ,-0.7800 ,,,,
2.6690 ,-0.8200 ,,,,
2.6720 ,-0.8200 ,,,,
2.6750 ,-0.8600 ,,,,
2.6780 ,-0.9000 ,,,,
2.6820 ,-0.9000 ,,,,
2.6850 ,-0.9400 ,,,,
2.6880 ,-0.9400 ,,,,
2.6910 ,-0.9800 ,,,,
2.6940 ,-0.9800 ,,,,
2.6980 ,-1.0200 ,,,,
2.7010 ,-1.0200 ,,,,
2.7040 ,-1.0600 ,,,,
2.7070 ,-1.0600 ,,,,
2.7100 ,-1.1000 ,,,,
2.7140 ,-1.1000 ,,,,
2.7170 ,-1.1000 ,,,,
2.7200 ,-1.1400 ,,,,
2.7230 ,-1.1400 ,,,,
2.7260 ,-1.1400 ,,,,
2.7300 ,-1.1400 ,,,,
2.7330 ,-1.1400 ,,,,
2.7360 ,-1.1400 ,,,,
2.7390 ,-1.1800 ,,,,
2.7420 ,-1.1800 ,,,,
2.7460 ,-1.1800 ,,,,
2.7490 ,-1.1800 ,,,,
2.7520 ,-1.1800 ,,,,
2.7550 ,-1.1800 ,,,,
2.7580 ,-1.1800 ,,,,
2.7620 ,-1.1800 ,,,,
2.7650 ,-1.2200 ,,,,
2.7680 ,-1.2200 ,,,,
2.7710 ,-1.2200 ,,,,
2.7740 ,-1.2600 ,,,,
2.7780 ,-1.2200 ,,,,
2.7810 ,-1.2600 ,,,,
2.7840 ,-1.2200 ,,,,
2.7870 ,-1.2600 ,,,,
2.7900 ,-1.2600 ,,,,
2.7940 ,-1.2600 ,,,,
2.7970 ,-1.2600 ,,,,
2.8000 ,-1.2600 ,,,,
2.8030 ,-1.2600 ,,,,
2.8060 ,-1.2200 ,,,,
2.8100 ,-1.2200 ,,,,
2.8130 ,-1.2200 ,,,,
2.8160 ,-1.2200 ,,,,
2.8190 ,-1.2200 ,,,,
2.8220 ,-1.1800 ,,,,
2.8260 ,-1.1800 ,,,,
2.8290 ,-1.1800 ,,,,
2.8320 ,-1.1800 ,,,,
2.8350 ,-1.1400 ,,,,
2.8380 ,-1.1400 ,,,,
2.8420 ,-1.1400 ,,,,
2.8450 ,-1.1000 ,,,,
2.8480 ,-1.1000 ,,,,
2.8510 ,-1.1000 ,,,,
2.8540 ,-1.1000 ,,,,
2.8580 ,-1.1000 ,,,,
2.8610 ,-1.1000 ,,,,
2.8640 ,-1.1000 ,,,,
2.8670 ,-1.1000 ,,,,
2.8700 ,-1.0600 ,,,,
2.8740 ,-1.1000 ,,,,
2.8770 ,-1.0600 ,,,,
2.8800 ,-1.0600 ,,,,
2.8830 ,-1.0600 ,,,,
2.8860 ,-1.1000 ,,,,
2.8900 ,-1.0600 ,,,,
2.8930 ,-1.1000 ,,,,
2.8960 ,-1.1000 ,,,,
2.8990 ,-1.1400 ,,,,
2.9020 ,-1.1000 ,,,,
2.9060 ,-1.1400 ,,,,
2.9090 ,-1.1000 ,,,,
2.9120 ,-1.1400 ,,,,
2.9150 ,-1.1000 ,,,,
2.9180 ,-1.1400 ,,,,
2.9220 ,-1.1400 ,,,,
2.9250 ,-1.1800 ,,,,
2.9280 ,-1.1800 ,,,,
2.9310 ,-1.1800 ,,,,
2.9340 ,-1.1800 ,,,,
2.9380 ,-1.1800 ,,,,
2.9410 ,-1.2200 ,,,,
2.9440 ,-1.2200 ,,,,
2.9470 ,-1.2200 ,,,,
2.9500 ,-1.2200 ,,,,
2.9540 ,-1.2200 ,,,,
2.9570 ,-1.2600 ,,,,
2.9600 ,-1.2600 ,,,,
2.9630 ,-1.2600 ,,,,
2.9660 ,-1.3000 ,,,,
2.9700 ,-1.3000 ,,,,
2.9730 ,-1.3000 ,,,,
2.9760 ,-1.3000 ,,,,
2.9790 ,-1.3400 ,,,,
2.9820 ,-1.3000 ,,,,
2.9860 ,-1.3400 ,,,,
2.9890 ,-1.3000 ,,,,
2.9920 ,-1.3400 ,,,,
2.9950 ,-1.3400 ,,,,
2.9980 ,-1.3400 ,,,,
3.0020 ,-1.3400 ,,,,
3.0050 ,-1.3000 ,,,,
3.0080 ,-1.3400 ,,,,
3.0110 ,-1.2600 ,,,,
3.0140 ,-1.1800 ,,,,
3.0180 ,-1.1000 ,,,,
3.0210 ,-0.9800 ,,,,
3.0240 ,-0.8600 ,,,,
3.0270 ,-0.7000 ,,,,
3.0300 ,-0.5400 ,,,,
3.0340 ,-0.3800 ,,,,
3.0370 ,-0.1800 ,,,,
3.0400 ,0.0600 ,,,,
3.0430 ,0.2600 ,,,,
3.0460 ,0.4600 ,,,,
3.0500 ,0.7000 ,,,,
3.0530 ,0.9400 ,,,,
3.0560 ,1.1400 ,,,,
3.0590 ,1.3800 ,,,,
3.0620 ,1.5800 ,,,,
3.0660 ,1.7400 ,,,,
3.0690 ,1.9400 ,,,,
3.0720 ,2.0600 ,,,,
3.0750 ,2.2200 ,,,,
3.0780 ,2.3400 ,,,,
3.0820 ,2.4600 ,,,,
3.0850 ,2.5800 ,,,,
3.0880 ,2.6600 ,,,,
3.0910 ,2.7000 ,,,,
3.0940 ,2.7800 ,,,,
3.0980 ,2.8200 ,,,,
3.1010 ,2.8600 ,,,,
3.1040 ,2.8600 ,,,,
3.1070 ,2.8600 ,,,,
3.1100 ,2.8600 ,,,,
3.1140 ,2.8200 ,,,,
3.1170 ,2.8600 ,,,,
3.1200 ,2.7800 ,,,,
3.1230 ,2.7400 ,,,,
3.1260 ,2.7000 ,,,,
3.1300 ,2.6600 ,,,,
3.1330 ,2.6200 ,,,,
3.1360 ,2.5000 ,,,,
3.1390 ,2.4600 ,,,,
3.1420 ,2.3800 ,,,,
3.1460 ,2.3400 ,,,,
3.1490 ,2.2200 ,,,,
3.1520 ,2.1400 ,,,,
3.1550 ,2.0600 ,,,,
3.1580 ,1.9800 ,,,,
3.1620 ,1.9000 ,,,,
3.1650 ,1.8200 ,,,,
3.1680 ,1.7400 ,,,,
3.1710 ,1.6600 ,,,,
3.1740 ,1.6200 ,,,,
3.1780 ,1.5000 ,,,,
3.1810 ,1.4600 ,,,,
3.1840 ,1.3800 ,,,,
3.1870 ,1.3400 ,,,,
3.1900 ,-0.0200 ,,,,
3.1940 ,-0.0200 ,,,,
3.1970 ,-0.0200 ,,,,
